 # temperature (K), theta (degree), phi (degree), abs for magnetization
     0.00000     0.00000     0.00000     1.81890
     2.00000     0.00000     0.00000     1.81877
     4.00000     0.00000     0.00000     1.81853
     6.00000     0.00000     0.00000     1.81822
     8.00000     0.00000     0.00000     1.81786
    10.00000     0.00000     0.00000     1.81744
    12.00000     0.00000     0.00000     1.81698
    14.00000     0.00000     0.00000     1.81649
    16.00000     0.00000     0.00000     1.81595
    18.00000     0.00000     0.00000     1.81538
    20.00000     0.00000     0.00000     1.81478
    22.00000     0.00000     0.00000     1.81414
    24.00000     0.00000     0.00000     1.81348
    26.00000     0.00000     0.00000     1.81278
    28.00000     0.00000     0.00000     1.81206
    30.00000     0.00000     0.00000     1.81131
    32.00000     0.00000     0.00000     1.81054
    34.00000     0.00000     0.00000     1.80974
    36.00000     0.00000     0.00000     1.80892
    38.00000     0.00000     0.00000     1.80807
    40.00000     0.00000     0.00000     1.80719
    42.00000     0.00000     0.00000     1.80630
    44.00000     0.00000     0.00000     1.80538
    46.00000     0.00000     0.00000     1.80443
    48.00000     0.00000     0.00000     1.80347
    50.00000     0.00000     0.00000     1.80248
    52.00000     0.00000     0.00000     1.80147
    54.00000     0.00000     0.00000     1.80043
    56.00000     0.00000     0.00000     1.79937
    58.00000     0.00000     0.00000     1.79830
    60.00000     0.00000     0.00000     1.79719
    62.00000     0.00000     0.00000     1.79607
    64.00000     0.00000     0.00000     1.79492
    66.00000     0.00000     0.00000     1.79375
    68.00000     0.00000     0.00000     1.79256
    70.00000     0.00000     0.00000     1.79135
    72.00000     0.00000     0.00000     1.79011
    74.00000     0.00000     0.00000     1.78885
    76.00000     0.00000     0.00000     1.78757
    78.00000     0.00000     0.00000     1.78627
    80.00000     0.00000     0.00000     1.78495
    82.00000     0.00000     0.00000     1.78360
    84.00000     0.00000     0.00000     1.78223
    86.00000     0.00000     0.00000     1.78085
    88.00000     0.00000     0.00000     1.77944
    90.00000     0.00000     0.00000     1.77800
    92.00000     0.00000     0.00000     1.77655
