 # temperature (K), theta (degree), phi (degree), abs
     0.00000     0.00000     0.00000     2.15106
     2.00000     0.00000     0.00000     2.15090
     4.00000     0.00000     0.00000     2.15062
     6.00000     0.00000     0.00000     2.15024
     8.00000     0.00000     0.00000     2.14980
    10.00000     0.00000     0.00000     2.14931
    12.00000     0.00000     0.00000     2.14875
    14.00000     0.00000     0.00000     2.14815
    16.00000     0.00000     0.00000     2.14751
    18.00000     0.00000     0.00000     2.14682
    20.00000     0.00000     0.00000     2.14610
    22.00000     0.00000     0.00000     2.14533
    24.00000     0.00000     0.00000     2.14453
    26.00000     0.00000     0.00000     2.14369
    28.00000     0.00000     0.00000     2.14283
    30.00000     0.00000     0.00000     2.14192
    32.00000     0.00000     0.00000     2.14099
    34.00000     0.00000     0.00000     2.14003
    36.00000     0.00000     0.00000     2.13904
    38.00000     0.00000     0.00000     2.13801
    40.00000     0.00000     0.00000     2.13696
    42.00000     0.00000     0.00000     2.13589
    44.00000     0.00000     0.00000     2.13478
    46.00000     0.00000     0.00000     2.13365
    48.00000     0.00000     0.00000     2.13250
    50.00000     0.00000     0.00000     2.13131
    52.00000     0.00000     0.00000     2.13011
    54.00000     0.00000     0.00000     2.12887
    56.00000     0.00000     0.00000     2.12762
    58.00000     0.00000     0.00000     2.12634
    60.00000     0.00000     0.00000     2.12503
    62.00000     0.00000     0.00000     2.12370
    64.00000     0.00000     0.00000     2.12235
    66.00000     0.00000     0.00000     2.12098
    68.00000     0.00000     0.00000     2.11958
    70.00000     0.00000     0.00000     2.11816
    72.00000     0.00000     0.00000     2.11672
    74.00000     0.00000     0.00000     2.11525
    76.00000     0.00000     0.00000     2.11377
    78.00000     0.00000     0.00000     2.11226
    80.00000     0.00000     0.00000     2.11073
    82.00000     0.00000     0.00000     2.10918
    84.00000     0.00000     0.00000     2.10761
    86.00000     0.00000     0.00000     2.10602
    88.00000     0.00000     0.00000     2.10440
    90.00000     0.00000     0.00000     2.10277
    92.00000     0.00000     0.00000     2.10111
    94.00000     0.00000     0.00000     2.09944
    96.00000     0.00000     0.00000     2.09774
    98.00000     0.00000     0.00000     2.09602
   100.00000     0.00000     0.00000     2.09428
   102.00000     0.00000     0.00000     2.09253
   104.00000     0.00000     0.00000     2.09075
   106.00000     0.00000     0.00000     2.08895
   108.00000     0.00000     0.00000     2.08713
   110.00000     0.00000     0.00000     2.08529
   112.00000     0.00000     0.00000     2.08344
   114.00000     0.00000     0.00000     2.08156
