 # applied field (T), theta (degree), phi (degree), abs for RE 3-4
     0.00000   179.61876   135.00000     4.39350   179.61876    45.00000     4.39350
     0.10000   179.48873   176.78415     4.39349   179.97512    45.00000     4.39333
     0.20000   179.21923   195.77260     4.39348   179.66800   225.00000     4.39316
     0.30000   178.90912   204.54543     4.39346   179.31057   225.00000     4.39298
     0.40000   178.58479   209.37317     4.39343   178.95257   225.00000     4.39278
     0.50000   178.25411   212.38829     4.39339   178.59397   225.00000     4.39257
     0.60000   177.92003   214.43993     4.39334   178.23475   225.00000     4.39236
     0.70000   177.58391   215.92290     4.39328   177.87487   225.00000     4.39213
     0.80000   177.24644   217.04356     4.39321   177.51433   225.00000     4.39190
     0.90000   176.90798   217.91968     4.39314   177.15308   225.00000     4.39165
     1.00000   176.56876   218.62317     4.39305   176.79111   225.00000     4.39140
     1.10000   176.22892   219.20035     4.39296   176.42839   225.00000     4.39113
     1.20000   175.88855   219.68240     4.39285   176.06489   225.00000     4.39086
     1.30000   175.54770   220.09101     4.39274   175.70060   225.00000     4.39057
     1.40000   175.20640   220.44178     4.39262   175.33548   225.00000     4.39028
     1.50000   174.86466   220.74618     4.39249   174.96952   225.00000     4.38998
     1.60000   174.52251   221.01284     4.39236   174.60269   225.00000     4.38967
     1.70000   174.17993   221.24838     4.39221   174.23497   225.00000     4.38935
     1.80000   173.83694   221.45796     4.39206   173.86633   225.00000     4.38902
     1.90000   173.44446   221.67086     4.39187   173.44397   225.00000     4.38863
     2.00000   173.10055   221.83752     4.39170   173.07331   225.00000     4.38829
     2.10000   172.75618   221.98855     4.39152   172.70166   225.00000     4.38793
     2.20000   172.41136   222.12606     4.39133   172.32901   225.00000     4.38757
     2.30000   172.01674   222.26887     4.39110   171.90196   225.00000     4.38715
     2.40000   171.67090   222.38294     4.39090   171.52710   225.00000     4.38677
     2.50000   171.27507   222.50242     4.39065   171.09748   225.00000     4.38633
     2.60000   170.92813   222.59860     4.39043   170.72032   225.00000     4.38594
     2.70000   170.53102   222.70007     4.39016   170.28802   225.00000     4.38548
     2.80000   170.13318   222.79357     4.38989   169.85426   225.00000     4.38501
     2.90000   169.78443   222.86958     4.38964   169.47342   225.00000     4.38460
     3.00000   169.38518   222.95050     4.38934   169.03685   225.00000     4.38412
     3.10000   168.98514   223.02574     4.38904   168.59876   225.00000     4.38364
     3.20000   168.58429   223.09589     4.38873   168.15911   225.00000     4.38314
     3.30000   168.18260   223.16145     4.38840   167.71790   225.00000     4.38265
     3.40000   167.78004   223.22287     4.38807   167.27511   225.00000     4.38214
     3.50000   167.37660   223.28055     4.38773   166.83071   225.00000     4.38163
     3.60000   166.92169   223.34136     4.38734   166.32893   225.00000     4.38106
     3.70000   166.51629   223.39215     4.38698   165.88108   225.00000     4.38054
     3.80000   166.05912   223.44593     4.38656   165.37539   225.00000     4.37995
     3.90000   165.65166   223.49104     4.38618   164.92405   225.00000     4.37943
     4.00000   165.19211   223.53898     4.38575   164.41440   225.00000     4.37884
     4.10000   164.73125   223.58423     4.38531   163.90266   225.00000     4.37824
     4.20000   164.26906   223.62700     4.38485   163.38880   225.00000     4.37765
     4.30000   163.80550   223.66752     4.38439   162.87283   225.00000     4.37705
     4.40000   163.28886   223.71009     4.38387   162.29717   225.00000     4.37640
     4.50000   162.77045   223.75033     4.38333   161.71891   225.00000     4.37574
     4.60000   162.30230   223.78472     4.38284   161.19618   225.00000     4.37515
     4.70000   161.72821   223.82456     4.38224   160.55469   225.00000     4.37444
     4.80000   161.20431   223.85889     4.38167   159.96877   225.00000     4.37380
     4.90000   160.62588   223.89473     4.38105   159.32146   225.00000     4.37310
     5.00000   160.04511   223.92873     4.38041   158.67118   225.00000     4.37241
     5.10000   159.46196   223.96104     4.37976   158.01799   225.00000     4.37174
     5.20000   158.82311   223.99451     4.37905   157.30225   225.00000     4.37102
     5.30000   158.18133   224.02629     4.37833   156.58322   225.00000     4.37032
     5.40000   157.48281   224.05897     4.37754   155.80077   225.00000     4.36959
     5.50000   156.72667   224.09229     4.37669   154.95421   225.00000     4.36883
     5.60000   155.96644   224.12387     4.37583   154.10371   225.00000     4.36811
     5.70000    90.00000   225.00000     4.35295    91.29820   225.00000     4.37751
     5.80000    90.00000   225.00000     4.35290    91.29810   225.00000     4.37747
     5.90000    90.00000   225.00000     4.35286    91.29799   225.00000     4.37742
     6.00000    90.00000   225.00000     4.35281    91.29788   225.00000     4.37738
     6.10000    90.00000   225.00000     4.35277    91.29777   225.00000     4.37734
     6.20000    90.00000   225.00000     4.35272    91.29766   225.00000     4.37730
     6.30000    90.00000   225.00000     4.35268    91.29755   225.00000     4.37726
     6.40000    90.00000   225.00000     4.35264    91.29744   225.00000     4.37722
     6.50000    90.00000   225.00000     4.35259    91.29733   225.00000     4.37717
     6.60000    90.00000   225.00000     4.35255    91.29722   225.00000     4.37713
     6.70000    90.00000   225.00000     4.35250    91.29711   225.00000     4.37709
     6.80000    90.00000   225.00000     4.35246    91.29700   225.00000     4.37705
     6.90000    90.00000   225.00000     4.35241    91.29689   225.00000     4.37701
     7.00000    90.00000   225.00000     4.35237    91.29678   225.00000     4.37696
     7.10000    90.00000   225.00000     4.35232    91.29667   225.00000     4.37692
     7.20000    90.00000   225.00000     4.35228    91.29657   225.00000     4.37688
     7.30000    90.00000   225.00000     4.35224    91.29646   225.00000     4.37684
     7.40000    90.00000   225.00000     4.35219    91.29635   225.00000     4.37680
     7.50000    90.00000   225.00000     4.35215    91.29624   225.00000     4.37676
     7.60000    90.00000   225.00000     4.35210    91.29613   225.00000     4.37671
     7.70000    90.00000   225.00000     4.35206    91.29602   225.00000     4.37667
     7.80000    90.00000   225.00000     4.35201    91.29591   225.00000     4.37663
     7.90000    90.00000   225.00000     4.35197    91.29580   225.00000     4.37659
     8.00000    90.00000   225.00000     4.35192    91.29569   225.00000     4.37655
     8.10000    90.00000   225.00000     4.35188    91.29559   225.00000     4.37651
     8.20000    90.00000   225.00000     4.35183    91.29548   225.00000     4.37646
     8.30000    90.00000   225.00000     4.35179    91.29537   225.00000     4.37642
     8.40000    90.00000   225.00000     4.35175    91.29526   225.00000     4.37638
     8.50000    90.00000   225.00000     4.35170    91.29515   225.00000     4.37634
     8.60000    90.00000   225.00000     4.35166    91.29504   225.00000     4.37630
     8.70000    90.00000   225.00000     4.35161    91.29494   225.00000     4.37625
     8.80000    90.00000   225.00000     4.35157    91.29483   225.00000     4.37621
     8.90000    90.00000   225.00000     4.35152    91.29472   225.00000     4.37617
     9.00000    90.00000   225.00000     4.35148    91.29461   225.00000     4.37613
     9.10000    90.00000   225.00000     4.35143    91.29450   225.00000     4.37609
     9.20000    90.00000   225.00000     4.35139    91.29439   225.00000     4.37605
     9.30000    90.00000   225.00000     4.35134    91.29429   225.00000     4.37600
     9.40000    90.00000   225.00000     4.35130    91.29418   225.00000     4.37596
     9.50000    90.00000   225.00000     4.35125    91.29407   225.00000     4.37592
     9.60000    90.00000   225.00000     4.35121    91.29396   225.00000     4.37588
     9.70000    90.00000   225.00000     4.35117    91.29385   225.00000     4.37584
     9.80000    90.00000   225.00000     4.35112    91.29375   225.00000     4.37579
     9.90000    90.00000   225.00000     4.35108    91.29364   225.00000     4.37575
    10.00000    90.00000   225.00000     4.35103    91.29353   225.00000     4.37571
    10.10000    90.00000   225.00000     4.35099    91.29342   225.00000     4.37567
    10.20000    90.00000   225.00000     4.35094    91.29331   225.00000     4.37563
    10.30000    90.00000   225.00000     4.35090    91.29321   225.00000     4.37558
    10.40000    90.00000   225.00000     4.35085    91.29310   225.00000     4.37554
    10.50000    90.00000   225.00000     4.35081    91.29299   225.00000     4.37550
    10.60000    90.00000   225.00000     4.35076    91.29288   225.00000     4.37546
    10.70000    90.00000   225.00000     4.35072    91.29278   225.00000     4.37542
    10.80000    90.00000   225.00000     4.35067    91.29267   225.00000     4.37537
    10.90000    90.00000   225.00000     4.35063    91.29256   225.00000     4.37533
    11.00000    90.00000   225.00000     4.35058    91.29245   225.00000     4.37529
    11.10000    90.00000   225.00000     4.35054    91.29235   225.00000     4.37525
    11.20000    90.00000   225.00000     4.35050    91.29224   225.00000     4.37521
    11.30000    90.00000   225.00000     4.35045    91.29213   225.00000     4.37517
    11.40000    90.00000   225.00000     4.35041    91.29202   225.00000     4.37512
    11.50000    90.00000   225.00000     4.35036    91.29192   225.00000     4.37508
    11.60000    90.00000   225.00000     4.35032    91.29181   225.00000     4.37504
    11.70000    90.00000   225.00000     4.35027    91.29170   225.00000     4.37500
    11.80000    90.00000   225.00000     4.35023    91.29159   225.00000     4.37496
    11.90000    90.00000   225.00000     4.35018    91.29149   225.00000     4.37491
    12.00000    90.00000   225.00000     4.35014    91.29138   225.00000     4.37487
    12.10000    90.00000   225.00000     4.35009    91.29127   225.00000     4.37483
    12.20000    90.00000   225.00000     4.35005    91.29117   225.00000     4.37479
    12.30000    90.00000   225.00000     4.35000    91.29106   225.00000     4.37475
    12.40000    90.00000   225.00000     4.34996    91.29095   225.00000     4.37470
    12.50000    90.00000   225.00000     4.34991    91.29085   225.00000     4.37466
    12.60000    90.00000   225.00000     4.34987    91.29074   225.00000     4.37462
    12.70000    90.00000   225.00000     4.34982    91.29063   225.00000     4.37458
    12.80000    90.00000   225.00000     4.34978    91.29053   225.00000     4.37453
    12.90000    90.00000   225.00000     4.34973    91.29042   225.00000     4.37449
    13.00000    90.00000   225.00000     4.34969    91.29031   225.00000     4.37445
    13.10000    90.00000   225.00000     4.34964    91.29021   225.00000     4.37441
    13.20000    90.00000   225.00000     4.34960    91.29010   225.00000     4.37437
    13.30000    90.00000   225.00000     4.34956    91.28999   225.00000     4.37432
    13.40000    90.00000   225.00000     4.34951    91.28989   225.00000     4.37428
    13.50000    90.00000   225.00000     4.34947    91.28978   225.00000     4.37424
    13.60000    90.00000   225.00000     4.34942    91.28967   225.00000     4.37420
    13.70000    90.00000   225.00000     4.34938    91.28957   225.00000     4.37416
    13.80000    90.00000   225.00000     4.34933    91.28946   225.00000     4.37411
    13.90000    90.00000   225.00000     4.34929    91.28935   225.00000     4.37407
    14.00000    90.00000   225.00000     4.34924    91.28925   225.00000     4.37403
    14.10000    90.00000   225.00000     4.34920    91.28914   225.00000     4.37399
    14.20000    90.00000   225.00000     4.34915    91.28904   225.00000     4.37395
    14.30000    90.00000   225.00000     4.34911    91.28893   225.00000     4.37390
    14.40000    90.00000   225.00000     4.34906    91.28882   225.00000     4.37386
    14.50000    90.00000   225.00000     4.34902    91.28872   225.00000     4.37382
    14.60000    90.00000   225.00000     4.34897    91.28861   225.00000     4.37378
    14.70000    90.00000   225.00000     4.34893    91.28850   225.00000     4.37374
    14.80000    90.00000   225.00000     4.34888    91.28840   225.00000     4.37369
    14.90000    90.00000   225.00000     4.34884    91.28829   225.00000     4.37365
    15.00000    90.00000   225.00000     4.34879    91.28819   225.00000     4.37361
    15.10000    90.00000   225.00000     4.34875    91.28808   225.00000     4.37357
    15.20000    90.00000   225.00000     4.34870    91.28798   225.00000     4.37352
    15.30000    90.00000   225.00000     4.34866    91.28787   225.00000     4.37348
    15.40000    90.00000   225.00000     4.34861    91.28776   225.00000     4.37344
    15.50000    90.00000   225.00000     4.34857    91.28766   225.00000     4.37340
    15.60000    90.00000   225.00000     4.34852    91.28755   225.00000     4.37336
    15.70000    90.00000   225.00000     4.34848    91.28745   225.00000     4.37331
    15.80000    90.00000   225.00000     4.34843    91.28734   225.00000     4.37327
    15.90000    90.00000   225.00000     4.34839    91.28724   225.00000     4.37323
    16.00000    90.00000   225.00000     4.34834    91.28713   225.00000     4.37319
    16.10000    90.00000   225.00000     4.34830    91.28702   225.00000     4.37314
    16.20000    90.00000   225.00000     4.34825    91.28692   225.00000     4.37310
    16.30000    90.00000   225.00000     4.34821    91.28681   225.00000     4.37306
    16.40000    90.00000   225.00000     4.34816    91.28671   225.00000     4.37302
    16.50000    90.00000   225.00000     4.34812    91.28660   225.00000     4.37298
    16.60000    90.00000   225.00000     4.34807    91.28650   225.00000     4.37293
    16.70000    90.00000   225.00000     4.34803    91.28639   225.00000     4.37289
    16.80000    90.00000   225.00000     4.34798    91.28629   225.00000     4.37285
    16.90000    90.00000   225.00000     4.34794    91.28618   225.00000     4.37281
    17.00000    90.00000   225.00000     4.34789    91.28608   225.00000     4.37276
    17.10000    90.00000   225.00000     4.34785    91.28597   225.00000     4.37272
    17.20000    90.00000   225.00000     4.34780    91.28587   225.00000     4.37268
    17.30000    90.00000   225.00000     4.34776    91.28576   225.00000     4.37264
    17.40000    90.00000   225.00000     4.34771    91.28566   225.00000     4.37260
    17.50000    90.00000   225.00000     4.34767    91.28555   225.00000     4.37255
    17.60000    90.00000   225.00000     4.34762    91.28545   225.00000     4.37251
    17.70000    90.00000   225.00000     4.34758    91.28534   225.00000     4.37247
    17.80000    90.00000   225.00000     4.34753    91.28524   225.00000     4.37243
    17.90000    90.00000   225.00000     4.34749    91.28513   225.00000     4.37238
    18.00000    90.00000   225.00000     4.34744    91.28503   225.00000     4.37234
    18.10000    90.00000   225.00000     4.34740    91.28492   225.00000     4.37230
    18.20000    90.00000   225.00000     4.34735    91.28482   225.00000     4.37226
    18.30000    90.00000   225.00000     4.34731    91.28472   225.00000     4.37221
    18.40000    90.00000   225.00000     4.34726    91.28461   225.00000     4.37217
    18.50000    90.00000   225.00000     4.34722    91.28451   225.00000     4.37213
    18.60000    90.00000   225.00000     4.34717    91.28440   225.00000     4.37209
    18.70000    90.00000   225.00000     4.34713    91.28430   225.00000     4.37205
    18.80000    90.00000   225.00000     4.34708    91.28419   225.00000     4.37200
    18.90000    90.00000   225.00000     4.34704    91.28409   225.00000     4.37196
    19.00000    90.00000   225.00000     4.34699    91.28398   225.00000     4.37192
    19.10000    90.00000   225.00000     4.34695    91.28388   225.00000     4.37188
    19.20000    90.00000   225.00000     4.34690    91.28378   225.00000     4.37183
    19.30000    90.00000   225.00000     4.34685    91.28367   225.00000     4.37179
    19.40000    90.00000   225.00000     4.34681    91.28357   225.00000     4.37175
    19.50000    90.00000   225.00000     4.34676    91.28346   225.00000     4.37171
    19.60000    90.00000   225.00000     4.34672    91.28336   225.00000     4.37166
    19.70000    90.00000   225.00000     4.34667    91.28325   225.00000     4.37162
    19.80000    90.00000   225.00000     4.34663    91.28315   225.00000     4.37158
    19.90000    90.00000   225.00000     4.34658    91.28305   225.00000     4.37154
    20.00000    90.00000   225.00000     4.34654    91.28294   225.00000     4.37149
    20.10000    90.00000   225.00000     4.34649    91.28284   225.00000     4.37145
    20.20000    90.00000   225.00000     4.34645    91.28274   225.00000     4.37141
    20.30000    90.00000   225.00000     4.34640    91.28263   225.00000     4.37137
    20.40000    90.00000   225.00000     4.34636    91.28253   225.00000     4.37132
    20.50000    90.00000   225.00000     4.34631    91.28242   225.00000     4.37128
    20.60000    90.00000   225.00000     4.34627    91.28232   225.00000     4.37124
    20.70000    90.00000   225.00000     4.34622    91.28222   225.00000     4.37120
    20.80000    90.00000   225.00000     4.34618    91.28211   225.00000     4.37115
    20.90000    90.00000   225.00000     4.34613    91.28201   225.00000     4.37111
    21.00000    90.00000   225.00000     4.34609    91.28191   225.00000     4.37107
    21.10000    90.00000   225.00000     4.34604    91.28180   225.00000     4.37103
    21.20000    90.00000   225.00000     4.34600    91.28170   225.00000     4.37098
    21.30000    90.00000   225.00000     4.34595    91.28160   225.00000     4.37094
    21.40000    90.00000   225.00000     4.34591    91.28149   225.00000     4.37090
    21.50000    90.00000   225.00000     4.34586    91.28139   225.00000     4.37086
    21.60000    90.00000   225.00000     4.34581    91.28129   225.00000     4.37081
    21.70000    90.00000   225.00000     4.34577    91.28118   225.00000     4.37077
    21.80000    90.00000   225.00000     4.34572    91.28108   225.00000     4.37073
    21.90000    90.00000   225.00000     4.34568    91.28098   225.00000     4.37069
    22.00000    90.00000   225.00000     4.34563    91.28087   225.00000     4.37064
    22.10000    90.00000   225.00000     4.34559    91.28077   225.00000     4.37060
    22.20000    90.00000   225.00000     4.34554    91.28067   225.00000     4.37056
    22.30000    90.00000   225.00000     4.34550    91.28056   225.00000     4.37052
    22.40000    90.00000   225.00000     4.34545    91.28046   225.00000     4.37047
    22.50000    90.00000   225.00000     4.34541    91.28036   225.00000     4.37043
    22.60000    90.00000   225.00000     4.34536    91.28025   225.00000     4.37039
    22.70000    90.00000   225.00000     4.34532    91.28015   225.00000     4.37035
    22.80000    90.00000   225.00000     4.34527    91.28005   225.00000     4.37030
    22.90000    90.00000   225.00000     4.34522    91.27995   225.00000     4.37026
    23.00000    90.00000   225.00000     4.34518    91.27984   225.00000     4.37022
    23.10000    90.00000   225.00000     4.34513    91.27974   225.00000     4.37018
    23.20000    90.00000   225.00000     4.34509    91.27964   225.00000     4.37013
    23.30000    90.00000   225.00000     4.34504    91.27954   225.00000     4.37009
    23.40000    90.00000   225.00000     4.34500    91.27943   225.00000     4.37005
    23.50000    90.00000   225.00000     4.34495    91.27933   225.00000     4.37001
    23.60000    90.00000   225.00000     4.34491    91.27923   225.00000     4.36996
    23.70000    90.00000   225.00000     4.34486    91.27913   225.00000     4.36992
    23.80000    90.00000   225.00000     4.34482    91.27902   225.00000     4.36988
    23.90000    90.00000   225.00000     4.34477    91.27892   225.00000     4.36984
    24.00000    90.00000   225.00000     4.34473    91.27882   225.00000     4.36979
    24.10000    90.00000   225.00000     4.34468    91.27872   225.00000     4.36975
    24.20000    90.00000   225.00000     4.34463    91.27861   225.00000     4.36971
    24.30000    90.00000   225.00000     4.34459    91.27851   225.00000     4.36966
    24.40000    90.00000   225.00000     4.34454    91.27841   225.00000     4.36962
    24.50000    90.00000   225.00000     4.34450    91.27831   225.00000     4.36958
    24.60000    90.00000   225.00000     4.34445    91.27820   225.00000     4.36954
    24.70000    90.00000   225.00000     4.34441    91.27810   225.00000     4.36949
    24.80000    90.00000   225.00000     4.34436    91.27800   225.00000     4.36945
    24.90000    90.00000   225.00000     4.34432    91.27790   225.00000     4.36941
    25.00000    90.00000   225.00000     4.34427    91.27780   225.00000     4.36937
    25.10000    90.00000   225.00000     4.34423    91.27769   225.00000     4.36932
    25.20000    90.00000   225.00000     4.34418    91.27759   225.00000     4.36928
    25.30000    90.00000   225.00000     4.34413    91.27749   225.00000     4.36924
    25.40000    90.00000   225.00000     4.34409    91.27739   225.00000     4.36920
    25.50000    90.00000   225.00000     4.34404    91.27729   225.00000     4.36915
    25.60000    90.00000   225.00000     4.34400    91.27718   225.00000     4.36911
    25.70000    90.00000   225.00000     4.34395    91.27708   225.00000     4.36907
    25.80000    90.00000   225.00000     4.34391    91.27698   225.00000     4.36902
    25.90000    90.00000   225.00000     4.34386    91.27688   225.00000     4.36898
    26.00000    90.00000   225.00000     4.34382    91.27678   225.00000     4.36894
    26.10000    90.00000   225.00000     4.34377    91.27668   225.00000     4.36890
    26.20000    90.00000   225.00000     4.34372    91.27658   225.00000     4.36885
    26.30000    90.00000   225.00000     4.34368    91.27647   225.00000     4.36881
    26.40000    90.00000   225.00000     4.34363    91.27637   225.00000     4.36877
    26.50000    90.00000   225.00000     4.34359    91.27627   225.00000     4.36873
    26.60000    90.00000   225.00000     4.34354    91.27617   225.00000     4.36868
    26.70000    90.00000   225.00000     4.34350    91.27607   225.00000     4.36864
    26.80000    90.00000   225.00000     4.34345    91.27597   225.00000     4.36860
    26.90000    90.00000   225.00000     4.34341    91.27587   225.00000     4.36855
    27.00000    90.00000   225.00000     4.34336    91.27576   225.00000     4.36851
    27.10000    90.00000   225.00000     4.34331    91.27566   225.00000     4.36847
    27.20000    90.00000   225.00000     4.34327    91.27556   225.00000     4.36843
    27.30000    90.00000   225.00000     4.34322    91.27546   225.00000     4.36838
    27.40000    90.00000   225.00000     4.34318    91.27536   225.00000     4.36834
    27.50000    90.00000   225.00000     4.34313    91.27526   225.00000     4.36830
    27.60000    90.00000   225.00000     4.34309    91.27516   225.00000     4.36825
    27.70000    90.00000   225.00000     4.34304    91.27506   225.00000     4.36821
    27.80000    90.00000   225.00000     4.34299    91.27496   225.00000     4.36817
    27.90000    90.00000   225.00000     4.34295    91.27485   225.00000     4.36813
    28.00000    90.00000   225.00000     4.34290    91.27475   225.00000     4.36808
    28.10000    90.00000   225.00000     4.34286    91.27465   225.00000     4.36804
    28.20000    90.00000   225.00000     4.34281    91.27455   225.00000     4.36800
    28.30000    90.00000   225.00000     4.34277    91.27445   225.00000     4.36795
    28.40000    90.00000   225.00000     4.34272    91.27435   225.00000     4.36791
    28.50000    90.00000   225.00000     4.34267    91.27425   225.00000     4.36787
    28.60000    90.00000   225.00000     4.34263    91.27415   225.00000     4.36783
    28.70000    90.00000   225.00000     4.34258    91.27405   225.00000     4.36778
    28.80000    90.00000   225.00000     4.34254    91.27395   225.00000     4.36774
    28.90000    90.00000   225.00000     4.34249    91.27385   225.00000     4.36770
    29.00000    90.00000   225.00000     4.34245    91.27375   225.00000     4.36765
    29.10000    90.00000   225.00000     4.34240    91.27365   225.00000     4.36761
    29.20000    90.00000   225.00000     4.34235    91.27355   225.00000     4.36757
    29.30000    90.00000   225.00000     4.34231    91.27345   225.00000     4.36753
    29.40000    90.00000   225.00000     4.34226    91.27335   225.00000     4.36748
    29.50000    90.00000   225.00000     4.34222    91.27325   225.00000     4.36744
    29.60000    90.00000   225.00000     4.34217    91.27315   225.00000     4.36740
    29.70000    90.00000   225.00000     4.34213    91.27304   225.00000     4.36735
    29.80000    90.00000   225.00000     4.34208    91.27294   225.00000     4.36731
    29.90000    90.00000   225.00000     4.34203    91.27284   225.00000     4.36727
    30.00000    90.00000   225.00000     4.34199    91.27274   225.00000     4.36723
    30.10000    90.00000   225.00000     4.34194    91.27264   225.00000     4.36718
    30.20000    90.00000   225.00000     4.34190    91.27254   225.00000     4.36714
    30.30000    90.00000   225.00000     4.34185    91.27244   225.00000     4.36710
    30.40000    90.00000   225.00000     4.34181    91.27234   225.00000     4.36705
    30.50000    90.00000   225.00000     4.34176    91.27224   225.00000     4.36701
    30.60000    90.00000   225.00000     4.34171    91.27214   225.00000     4.36697
    30.70000    90.00000   225.00000     4.34167    91.27204   225.00000     4.36692
    30.80000    90.00000   225.00000     4.34162    91.27194   225.00000     4.36688
    30.90000    90.00000   225.00000     4.34158    91.27184   225.00000     4.36684
    31.00000    90.00000   225.00000     4.34153    91.27175   225.00000     4.36680
    31.10000    90.00000   225.00000     4.34148    91.27165   225.00000     4.36675
    31.20000    90.00000   225.00000     4.34144    91.27155   225.00000     4.36671
    31.30000    90.00000   225.00000     4.34139    91.27145   225.00000     4.36667
    31.40000    90.00000   225.00000     4.34135    91.27135   225.00000     4.36662
    31.50000    90.00000   225.00000     4.34130    91.27125   225.00000     4.36658
    31.60000    90.00000   225.00000     4.34125    91.27115   225.00000     4.36654
    31.70000    90.00000   225.00000     4.34121    91.27105   225.00000     4.36649
    31.80000    90.00000   225.00000     4.34116    91.27095   225.00000     4.36645
    31.90000    90.00000   225.00000     4.34112    91.27085   225.00000     4.36641
    32.00000    90.00000   225.00000     4.34107    91.27075   225.00000     4.36636
    32.10000    90.00000   225.00000     4.34103    91.27065   225.00000     4.36632
    32.20000    90.00000   225.00000     4.34098    91.27055   225.00000     4.36628
    32.30000    90.00000   225.00000     4.34093    91.27045   225.00000     4.36624
    32.40000    90.00000   225.00000     4.34089    91.27035   225.00000     4.36619
    32.50000    90.00000   225.00000     4.34084    91.27025   225.00000     4.36615
    32.60000    90.00000   225.00000     4.34080    91.27015   225.00000     4.36611
    32.70000    90.00000   225.00000     4.34075    91.27006   225.00000     4.36606
    32.80000    90.00000   225.00000     4.34070    91.26996   225.00000     4.36602
    32.90000    90.00000   225.00000     4.34066    91.26986   225.00000     4.36598
    33.00000    90.00000   225.00000     4.34061    91.26976   225.00000     4.36593
    33.10000    90.00000   225.00000     4.34057    91.26966   225.00000     4.36589
    33.20000    90.00000   225.00000     4.34052    91.26956   225.00000     4.36585
    33.30000    90.00000   225.00000     4.34047    91.26946   225.00000     4.36580
    33.40000    90.00000   225.00000     4.34043    91.26936   225.00000     4.36576
    33.50000    90.00000   225.00000     4.34038    91.26926   225.00000     4.36572
    33.60000    90.00000   225.00000     4.34034    91.26917   225.00000     4.36568
    33.70000    90.00000   225.00000     4.34029    91.26907   225.00000     4.36563
    33.80000    90.00000   225.00000     4.34024    91.26897   225.00000     4.36559
    33.90000    90.00000   225.00000     4.34020    91.26887   225.00000     4.36555
    34.00000    90.00000   225.00000     4.34015    91.26877   225.00000     4.36550
    34.10000    90.00000   225.00000     4.34011    91.26867   225.00000     4.36546
    34.20000    90.00000   225.00000     4.34006    91.26857   225.00000     4.36542
    34.30000    90.00000   225.00000     4.34001    91.26847   225.00000     4.36537
    34.40000    90.00000   225.00000     4.33997    91.26838   225.00000     4.36533
    34.50000    90.00000   225.00000     4.33992    91.26828   225.00000     4.36529
    34.60000    90.00000   225.00000     4.33988    91.26818   225.00000     4.36524
    34.70000    90.00000   225.00000     4.33983    91.26808   225.00000     4.36520
    34.80000    90.00000   225.00000     4.33978    91.26798   225.00000     4.36516
    34.90000    90.00000   225.00000     4.33974    91.26788   225.00000     4.36511
    35.00000    90.00000   225.00000     4.33969    91.26779   225.00000     4.36507
    35.10000    90.00000   225.00000     4.33965    91.26769   225.00000     4.36503
    35.20000    90.00000   225.00000     4.33960    91.26759   225.00000     4.36498
    35.30000    90.00000   225.00000     4.33955    91.26749   225.00000     4.36494
    35.40000    90.00000   225.00000     4.33951    91.26739   225.00000     4.36490
    35.50000    90.00000   225.00000     4.33946    91.26730   225.00000     4.36485
    35.60000    90.00000   225.00000     4.33941    91.26720   225.00000     4.36481
    35.70000    90.00000   225.00000     4.33937    91.26710   225.00000     4.36477
    35.80000    90.00000   225.00000     4.33932    91.26700   225.00000     4.36472
    35.90000    90.00000   225.00000     4.33928    91.26690   225.00000     4.36468
    36.00000    90.00000   225.00000     4.33923    91.26681   225.00000     4.36464
    36.10000    90.00000   225.00000     4.33918    91.26671   225.00000     4.36459
    36.20000    90.00000   225.00000     4.33914    91.26661   225.00000     4.36455
    36.30000    90.00000   225.00000     4.33909    91.26651   225.00000     4.36451
    36.40000    90.00000   225.00000     4.33905    91.26641   225.00000     4.36446
    36.50000    90.00000   225.00000     4.33900    91.26632   225.00000     4.36442
    36.60000    90.00000   225.00000     4.33895    91.26622   225.00000     4.36438
    36.70000    90.00000   225.00000     4.33891    91.26612   225.00000     4.36433
    36.80000    90.00000   225.00000     4.33886    91.26602   225.00000     4.36429
    36.90000    90.00000   225.00000     4.33881    91.26593   225.00000     4.36425
    37.00000    90.00000   225.00000     4.33877    91.26583   225.00000     4.36420
    37.10000    90.00000   225.00000     4.33872    91.26573   225.00000     4.36416
    37.20000    90.00000   225.00000     4.33868    91.26563   225.00000     4.36412
    37.30000    90.00000   225.00000     4.33863    91.26554   225.00000     4.36407
    37.40000    90.00000   225.00000     4.33858    91.26544   225.00000     4.36403
    37.50000    90.00000   225.00000     4.33854    91.26534   225.00000     4.36399
    37.60000    90.00000   225.00000     4.33849    91.26524   225.00000     4.36394
    37.70000    90.00000   225.00000     4.33844    91.26515   225.00000     4.36390
    37.80000    90.00000   225.00000     4.33840    91.26505   225.00000     4.36386
    37.90000    90.00000   225.00000     4.33835    91.26495   225.00000     4.36381
    38.00000    90.00000   225.00000     4.33831    91.26486   225.00000     4.36377
    38.10000    90.00000   225.00000     4.33826    91.26476   225.00000     4.36373
    38.20000    90.00000   225.00000     4.33821    91.26466   225.00000     4.36368
    38.30000    90.00000   225.00000     4.33817    91.26456   225.00000     4.36364
    38.40000    90.00000   225.00000     4.33812    91.26447   225.00000     4.36360
    38.50000    90.00000   225.00000     4.33807    91.26437   225.00000     4.36355
    38.60000    90.00000   225.00000     4.33803    91.26427   225.00000     4.36351
    38.70000    90.00000   225.00000     4.33798    91.26418   225.00000     4.36347
    38.80000    90.00000   225.00000     4.33794    91.26408   225.00000     4.36342
    38.90000    90.00000   225.00000     4.33789    91.26398   225.00000     4.36338
    39.00000    90.00000   225.00000     4.33784    91.26389   225.00000     4.36334
    39.10000    90.00000   225.00000     4.33780    91.26379   225.00000     4.36329
    39.20000    90.00000   225.00000     4.33775    91.26369   225.00000     4.36325
    39.30000    90.00000   225.00000     4.33770    91.26360   225.00000     4.36321
    39.40000    90.00000   225.00000     4.33766    91.26350   225.00000     4.36316
    39.50000    90.00000   225.00000     4.33761    91.26340   225.00000     4.36312
    39.60000    90.00000   225.00000     4.33757    91.26331   225.00000     4.36308
    39.70000    90.00000   225.00000     4.33752    91.26321   225.00000     4.36303
    39.80000    90.00000   225.00000     4.33747    91.26311   225.00000     4.36299
    39.90000    90.00000   225.00000     4.33743    91.26302   225.00000     4.36295
    40.00000    90.00000   225.00000     4.33738    91.26292   225.00000     4.36290
