 # applied field (T), theta (degree), phi (degree), abs [muB/unitcell], abs [T]
       0.00000000       0.00000000       0.00000000      43.97537731       1.47008811
       0.10000000       0.34158150     360.00000000      43.97537972       1.47008819
       0.20000000       0.68316412     360.00000000      43.97538694       1.47008843
       0.30000000       1.02474897     360.00000000      43.97539898       1.47008883
       0.40000000       1.36633718     360.00000000      43.97541584       1.47008939
       0.50000000       1.76474025     360.00000000      43.97544090       1.47009023
       0.60000000       2.10633957     360.00000000      43.97546807       1.47009114
       0.70000000       2.44794577     360.00000000      43.97550006       1.47009221
       0.80000000       2.78955998     360.00000000      43.97553689       1.47009344
       0.90000000       3.13118331     360.00000000      43.97557854       1.47009483
       1.00000000       3.47281687     360.00000000      43.97562503       1.47009639
       1.10000000       3.81446176     360.00000000      43.97567636       1.47009810
       1.20000000       4.21294114     360.00000000      43.97574073       1.47010026
       1.30000000       4.55461443     360.00000000      43.97580244       1.47010232
       1.40000000       4.89630256     360.00000000      43.97586900       1.47010454
       1.50000000       5.23800664     360.00000000      43.97594042       1.47010693
       1.60000000       5.63656096     360.00000000      43.97602772       1.47010985
       1.70000000       5.97830338     360.00000000      43.97610956       1.47011259
       1.80000000       6.32006521     360.00000000      43.97619628       1.47011548
       1.90000000       6.71869136     360.00000000      43.97630104       1.47011899
       2.00000000       7.06049902     360.00000000      43.97639821       1.47012223
       2.10000000       7.45918167     360.00000000      43.97651489       1.47012614
       2.20000000       7.80104023     360.00000000      43.97662253       1.47012973
       2.30000000       8.19978527     360.00000000      43.97675116       1.47013403
       2.40000000       8.54169977     360.00000000      43.97686926       1.47013798
       2.50000000       8.94051306     360.00000000      43.97700984       1.47014268
       2.60000000       9.28248846     360.00000000      43.97713841       1.47014698
       2.70000000       9.68137576     360.00000000      43.97729092       1.47015208
       2.80000000      10.08030531     360.00000000      43.97744979       1.47015739
       2.90000000      10.47927874     360.00000000      43.97761500       1.47016291
       3.00000000      10.87829769     360.00000000      43.97778654       1.47016865
       3.10000000      11.27736376     360.00000000      43.97796439       1.47017459
       3.20000000      11.67647854     360.00000000      43.97814853       1.47018075
       3.30000000      12.07564363     360.00000000      43.97833893       1.47018711
       3.40000000      12.47486056     360.00000000      43.97853555       1.47019369
       3.50000000      12.87413089     360.00000000      43.97873836       1.47020047
       3.60000000      13.33040334     360.00000000      43.97897352       1.47020833
       3.70000000      13.72979321     360.00000000      43.97918933       1.47021554
       3.80000000      14.18620632     360.00000000      43.97943897       1.47022389
       3.90000000      14.58572248     360.00000000      43.97966752       1.47023153
       4.00000000      15.04228381     360.00000000      43.97993133       1.47024035
       4.10000000      15.49892721     360.00000000      43.98020247       1.47024941
       4.20000000      15.95565470     360.00000000      43.98048082       1.47025872
       4.30000000      16.46948577     360.00000000      43.98079810       1.47026932
       4.40000000      16.92639846     360.00000000      43.98109118       1.47027912
       4.50000000      17.44044279     360.00000000      43.98142441       1.47029026
       4.60000000      17.95460374     360.00000000      43.98176566       1.47030167
       4.70000000      18.46888369     360.00000000      43.98211463       1.47031333
       4.80000000      18.98328492     360.00000000      43.98247099       1.47032525
       4.90000000      90.00000000     360.00000000      43.99587120       1.47077321
       5.00000000      90.00000000     360.00000000      43.99591166       1.47077457
       5.10000000      90.00000000     360.00000000      43.99595213       1.47077592
       5.20000000      90.00000000     360.00000000      43.99599259       1.47077727
       5.30000000      90.00000000     360.00000000      43.99603307       1.47077862
       5.40000000      90.00000000     360.00000000      43.99607355       1.47077998
       5.50000000      90.00000000     360.00000000      43.99611403       1.47078133
       5.60000000      90.00000000     360.00000000      43.99615451       1.47078268
       5.70000000      90.00000000     360.00000000      43.99619500       1.47078404
       5.80000000      90.00000000     360.00000000      43.99623550       1.47078539
       5.90000000      90.00000000     360.00000000      43.99627600       1.47078675
       6.00000000      90.00000000     360.00000000      43.99631650       1.47078810
       6.10000000      90.00000000     360.00000000      43.99635701       1.47078945
       6.20000000      90.00000000     360.00000000      43.99639752       1.47079081
       6.30000000      90.00000000     360.00000000      43.99643804       1.47079216
       6.40000000      90.00000000     360.00000000      43.99647856       1.47079352
       6.50000000      90.00000000     360.00000000      43.99651909       1.47079487
       6.60000000      90.00000000     360.00000000      43.99655962       1.47079623
       6.70000000      90.00000000     360.00000000      43.99660015       1.47079758
       6.80000000      90.00000000     360.00000000      43.99664069       1.47079894
       6.90000000      90.00000000     360.00000000      43.99668124       1.47080029
       7.00000000      90.00000000     360.00000000      43.99672179       1.47080165
       7.10000000      90.00000000     360.00000000      43.99676234       1.47080300
       7.20000000      90.00000000     360.00000000      43.99680290       1.47080436
       7.30000000      90.00000000     360.00000000      43.99684346       1.47080572
       7.40000000      90.00000000     360.00000000      43.99688403       1.47080707
       7.50000000      90.00000000     360.00000000      43.99692460       1.47080843
       7.60000000      90.00000000     360.00000000      43.99696517       1.47080978
       7.70000000      90.00000000     360.00000000      43.99700575       1.47081114
       7.80000000      90.00000000     360.00000000      43.99704634       1.47081250
       7.90000000      90.00000000     360.00000000      43.99708692       1.47081385
       8.00000000      90.00000000     360.00000000      43.99712752       1.47081521
       8.10000000      90.00000000     360.00000000      43.99716812       1.47081657
       8.20000000      90.00000000     360.00000000      43.99720872       1.47081793
       8.30000000      90.00000000     360.00000000      43.99724932       1.47081928
       8.40000000      90.00000000     360.00000000      43.99728994       1.47082064
       8.50000000      90.00000000     360.00000000      43.99733055       1.47082200
       8.60000000      90.00000000     360.00000000      43.99737117       1.47082336
       8.70000000      90.00000000     360.00000000      43.99741180       1.47082471
       8.80000000      90.00000000     360.00000000      43.99745242       1.47082607
       8.90000000      90.00000000     360.00000000      43.99749306       1.47082743
       9.00000000      90.00000000     360.00000000      43.99753370       1.47082879
       9.10000000      90.00000000     360.00000000      43.99757434       1.47083015
       9.20000000      90.00000000     360.00000000      43.99761499       1.47083151
       9.30000000      90.00000000     360.00000000      43.99765564       1.47083287
       9.40000000      90.00000000     360.00000000      43.99769629       1.47083423
       9.50000000      90.00000000     360.00000000      43.99773695       1.47083558
       9.60000000      90.00000000     360.00000000      43.99777762       1.47083694
       9.70000000      90.00000000     360.00000000      43.99781829       1.47083830
       9.80000000      90.00000000     360.00000000      43.99785896       1.47083966
       9.90000000      90.00000000     360.00000000      43.99789964       1.47084102
      10.00000000      90.00000000     360.00000000      43.99794032       1.47084238
      10.10000000      90.00000000     360.00000000      43.99798101       1.47084374
      10.20000000      90.00000000     360.00000000      43.99802170       1.47084510
      10.30000000      90.00000000     360.00000000      43.99806240       1.47084646
      10.40000000      90.00000000     360.00000000      43.99810310       1.47084782
      10.50000000      90.00000000     360.00000000      43.99814380       1.47084919
      10.60000000      90.00000000     360.00000000      43.99818451       1.47085055
      10.70000000      90.00000000     360.00000000      43.99822523       1.47085191
      10.80000000      90.00000000     360.00000000      43.99826595       1.47085327
      10.90000000      90.00000000     360.00000000      43.99830667       1.47085463
      11.00000000      90.00000000     360.00000000      43.99834740       1.47085599
      11.10000000      90.00000000     360.00000000      43.99838813       1.47085735
      11.20000000      90.00000000     360.00000000      43.99842887       1.47085872
      11.30000000      90.00000000     360.00000000      43.99846961       1.47086008
      11.40000000      90.00000000     360.00000000      43.99851035       1.47086144
      11.50000000      90.00000000     360.00000000      43.99855110       1.47086280
      11.60000000      90.00000000     360.00000000      43.99859186       1.47086416
      11.70000000      90.00000000     360.00000000      43.99863262       1.47086553
      11.80000000      90.00000000     360.00000000      43.99867338       1.47086689
      11.90000000      90.00000000     360.00000000      43.99871415       1.47086825
      12.00000000      90.00000000     360.00000000      43.99875492       1.47086962
      12.10000000      90.00000000     360.00000000      43.99879570       1.47087098
      12.20000000      90.00000000     360.00000000      43.99883648       1.47087234
      12.30000000      90.00000000     360.00000000      43.99887727       1.47087371
      12.40000000      90.00000000     360.00000000      43.99891806       1.47087507
      12.50000000      90.00000000     360.00000000      43.99895886       1.47087643
      12.60000000      90.00000000     360.00000000      43.99899966       1.47087780
      12.70000000      90.00000000     360.00000000      43.99904046       1.47087916
      12.80000000      90.00000000     360.00000000      43.99908127       1.47088052
      12.90000000      90.00000000     360.00000000      43.99912208       1.47088189
      13.00000000      90.00000000     360.00000000      43.99916290       1.47088325
      13.10000000      90.00000000     360.00000000      43.99920372       1.47088462
      13.20000000      90.00000000     360.00000000      43.99924455       1.47088598
      13.30000000      90.00000000     360.00000000      43.99928538       1.47088735
      13.40000000      90.00000000     360.00000000      43.99932622       1.47088871
      13.50000000      90.00000000     360.00000000      43.99936706       1.47089008
      13.60000000      90.00000000     360.00000000      43.99940790       1.47089144
      13.70000000      90.00000000     360.00000000      43.99944875       1.47089281
      13.80000000      90.00000000     360.00000000      43.99948961       1.47089418
      13.90000000      90.00000000     360.00000000      43.99953047       1.47089554
      14.00000000      90.00000000     360.00000000      43.99957133       1.47089691
      14.10000000      90.00000000     360.00000000      43.99961220       1.47089827
      14.20000000      90.00000000     360.00000000      43.99965307       1.47089964
      14.30000000      90.00000000     360.00000000      43.99969395       1.47090101
      14.40000000      90.00000000     360.00000000      43.99973483       1.47090237
      14.50000000      90.00000000     360.00000000      43.99977571       1.47090374
      14.60000000      90.00000000     360.00000000      43.99981661       1.47090511
      14.70000000      90.00000000     360.00000000      43.99985750       1.47090647
      14.80000000      90.00000000     360.00000000      43.99989840       1.47090784
      14.90000000      90.00000000     360.00000000      43.99993930       1.47090921
      15.00000000      90.00000000     360.00000000      43.99998021       1.47091058
      15.10000000      90.00000000     360.00000000      44.00002113       1.47091194
      15.20000000      90.00000000     360.00000000      44.00006204       1.47091331
      15.30000000      90.00000000     360.00000000      44.00010297       1.47091468
      15.40000000      90.00000000     360.00000000      44.00014389       1.47091605
      15.50000000      90.00000000     360.00000000      44.00018482       1.47091742
      15.60000000      90.00000000     360.00000000      44.00022576       1.47091879
      15.70000000      90.00000000     360.00000000      44.00026670       1.47092015
      15.80000000      90.00000000     360.00000000      44.00030765       1.47092152
      15.90000000      90.00000000     360.00000000      44.00034860       1.47092289
      16.00000000      90.00000000     360.00000000      44.00038955       1.47092426
      16.10000000      90.00000000     360.00000000      44.00043051       1.47092563
      16.20000000      90.00000000     360.00000000      44.00047147       1.47092700
      16.30000000      90.00000000     360.00000000      44.00051244       1.47092837
      16.40000000      90.00000000     360.00000000      44.00055341       1.47092974
      16.50000000      90.00000000     360.00000000      44.00059439       1.47093111
      16.60000000      90.00000000     360.00000000      44.00063537       1.47093248
      16.70000000      90.00000000     360.00000000      44.00067636       1.47093385
      16.80000000      90.00000000     360.00000000      44.00071735       1.47093522
      16.90000000      90.00000000     360.00000000      44.00075834       1.47093659
      17.00000000      90.00000000     360.00000000      44.00079934       1.47093796
      17.10000000      90.00000000     360.00000000      44.00084035       1.47093933
      17.20000000      90.00000000     360.00000000      44.00088136       1.47094070
      17.30000000      90.00000000     360.00000000      44.00092237       1.47094207
      17.40000000      90.00000000     360.00000000      44.00096339       1.47094344
      17.50000000      90.00000000     360.00000000      44.00100441       1.47094482
      17.60000000      90.00000000     360.00000000      44.00104544       1.47094619
      17.70000000      90.00000000     360.00000000      44.00108647       1.47094756
      17.80000000      90.00000000     360.00000000      44.00112750       1.47094893
      17.90000000      90.00000000     360.00000000      44.00116855       1.47095030
      18.00000000      90.00000000     360.00000000      44.00120959       1.47095167
      18.10000000      90.00000000     360.00000000      44.00125064       1.47095305
      18.20000000      90.00000000     360.00000000      44.00129170       1.47095442
      18.30000000      90.00000000     360.00000000      44.00133275       1.47095579
      18.40000000      90.00000000     360.00000000      44.00137382       1.47095716
      18.50000000      90.00000000     360.00000000      44.00141489       1.47095854
      18.60000000      90.00000000     360.00000000      44.00145596       1.47095991
      18.70000000      90.00000000     360.00000000      44.00149704       1.47096128
      18.80000000      90.00000000     360.00000000      44.00153812       1.47096266
      18.90000000      90.00000000     360.00000000      44.00157921       1.47096403
      19.00000000      90.00000000     360.00000000      44.00162030       1.47096540
      19.10000000      90.00000000     360.00000000      44.00166139       1.47096678
      19.20000000      90.00000000     360.00000000      44.00170249       1.47096815
      19.30000000      90.00000000     360.00000000      44.00174360       1.47096953
      19.40000000      90.00000000     360.00000000      44.00178471       1.47097090
      19.50000000      90.00000000     360.00000000      44.00182582       1.47097227
      19.60000000      90.00000000     360.00000000      44.00186694       1.47097365
      19.70000000      90.00000000     360.00000000      44.00190806       1.47097502
      19.80000000      90.00000000     360.00000000      44.00194919       1.47097640
      19.90000000      90.00000000     360.00000000      44.00199032       1.47097777
      20.00000000      90.00000000     360.00000000      44.00203146       1.47097915
      20.10000000      90.00000000     360.00000000      44.00207260       1.47098052
      20.20000000      90.00000000     360.00000000      44.00211375       1.47098190
      20.30000000      90.00000000     360.00000000      44.00215490       1.47098328
      20.40000000      90.00000000     360.00000000      44.00219606       1.47098465
      20.50000000      90.00000000     360.00000000      44.00223722       1.47098603
      20.60000000      90.00000000     360.00000000      44.00227838       1.47098740
      20.70000000      90.00000000     360.00000000      44.00231955       1.47098878
      20.80000000      90.00000000     360.00000000      44.00236072       1.47099016
      20.90000000      90.00000000     360.00000000      44.00240190       1.47099153
      21.00000000      90.00000000     360.00000000      44.00244309       1.47099291
      21.10000000      90.00000000     360.00000000      44.00248427       1.47099429
      21.20000000      90.00000000     360.00000000      44.00252547       1.47099566
      21.30000000      90.00000000     360.00000000      44.00256666       1.47099704
      21.40000000      90.00000000     360.00000000      44.00260786       1.47099842
      21.50000000      90.00000000     360.00000000      44.00264907       1.47099980
      21.60000000      90.00000000     360.00000000      44.00269028       1.47100117
      21.70000000      90.00000000     360.00000000      44.00273150       1.47100255
      21.80000000      90.00000000     360.00000000      44.00277272       1.47100393
      21.90000000      90.00000000     360.00000000      44.00281394       1.47100531
      22.00000000      90.00000000     360.00000000      44.00285517       1.47100669
      22.10000000      90.00000000     360.00000000      44.00289640       1.47100806
      22.20000000      90.00000000     360.00000000      44.00293764       1.47100944
      22.30000000      90.00000000     360.00000000      44.00297889       1.47101082
      22.40000000      90.00000000     360.00000000      44.00302013       1.47101220
      22.50000000      90.00000000     360.00000000      44.00306139       1.47101358
      22.60000000      90.00000000     360.00000000      44.00310264       1.47101496
      22.70000000      90.00000000     360.00000000      44.00314390       1.47101634
      22.80000000      90.00000000     360.00000000      44.00318517       1.47101772
      22.90000000      90.00000000     360.00000000      44.00322644       1.47101910
      23.00000000      90.00000000     360.00000000      44.00326772       1.47102048
      23.10000000      90.00000000     360.00000000      44.00330900       1.47102186
      23.20000000      90.00000000     360.00000000      44.00335028       1.47102324
      23.30000000      90.00000000     360.00000000      44.00339157       1.47102462
      23.40000000      90.00000000     360.00000000      44.00343287       1.47102600
      23.50000000      90.00000000     360.00000000      44.00347416       1.47102738
      23.60000000      90.00000000     360.00000000      44.00351547       1.47102876
      23.70000000      90.00000000     360.00000000      44.00355678       1.47103014
      23.80000000      90.00000000     360.00000000      44.00359809       1.47103152
      23.90000000      90.00000000     360.00000000      44.00363940       1.47103290
      24.00000000      90.00000000     360.00000000      44.00368073       1.47103428
      24.10000000      90.00000000     360.00000000      44.00372205       1.47103567
      24.20000000      90.00000000     360.00000000      44.00376338       1.47103705
      24.30000000      90.00000000     360.00000000      44.00380472       1.47103843
      24.40000000      90.00000000     360.00000000      44.00384606       1.47103981
      24.50000000      90.00000000     360.00000000      44.00388740       1.47104119
      24.60000000      90.00000000     360.00000000      44.00392875       1.47104258
      24.70000000      90.00000000     360.00000000      44.00397011       1.47104396
      24.80000000      90.00000000     360.00000000      44.00401147       1.47104534
      24.90000000      90.00000000     360.00000000      44.00405283       1.47104672
      25.00000000      90.00000000     360.00000000      44.00409420       1.47104811
      25.10000000      90.00000000     360.00000000      44.00413557       1.47104949
      25.20000000      90.00000000     360.00000000      44.00417695       1.47105087
      25.30000000      90.00000000     360.00000000      44.00421833       1.47105226
      25.40000000      90.00000000     360.00000000      44.00425972       1.47105364
      25.50000000      90.00000000     360.00000000      44.00430111       1.47105502
      25.60000000      90.00000000     360.00000000      44.00434251       1.47105641
      25.70000000      90.00000000     360.00000000      44.00438391       1.47105779
      25.80000000      90.00000000     360.00000000      44.00442531       1.47105918
      25.90000000      90.00000000     360.00000000      44.00446672       1.47106056
      26.00000000      90.00000000     360.00000000      44.00450814       1.47106194
      26.10000000      90.00000000     360.00000000      44.00454956       1.47106333
      26.20000000      90.00000000     360.00000000      44.00459098       1.47106471
      26.30000000      90.00000000     360.00000000      44.00463241       1.47106610
      26.40000000      90.00000000     360.00000000      44.00467384       1.47106748
      26.50000000      90.00000000     360.00000000      44.00471528       1.47106887
      26.60000000      90.00000000     360.00000000      44.00475672       1.47107025
      26.70000000      90.00000000     360.00000000      44.00479817       1.47107164
      26.80000000      90.00000000     360.00000000      44.00483962       1.47107303
      26.90000000      90.00000000     360.00000000      44.00488108       1.47107441
      27.00000000      90.00000000     360.00000000      44.00492254       1.47107580
      27.10000000      90.00000000     360.00000000      44.00496401       1.47107718
      27.20000000      90.00000000     360.00000000      44.00500548       1.47107857
      27.30000000      90.00000000     360.00000000      44.00504695       1.47107996
      27.40000000      90.00000000     360.00000000      44.00508843       1.47108134
      27.50000000      90.00000000     360.00000000      44.00512992       1.47108273
      27.60000000      90.00000000     360.00000000      44.00517141       1.47108412
      27.70000000      90.00000000     360.00000000      44.00521290       1.47108550
      27.80000000      90.00000000     360.00000000      44.00525440       1.47108689
      27.90000000      90.00000000     360.00000000      44.00529590       1.47108828
      28.00000000      90.00000000     360.00000000      44.00533741       1.47108967
      28.10000000      90.00000000     360.00000000      44.00537892       1.47109105
      28.20000000      90.00000000     360.00000000      44.00542044       1.47109244
      28.30000000      90.00000000     360.00000000      44.00546196       1.47109383
      28.40000000      90.00000000     360.00000000      44.00550349       1.47109522
      28.50000000      90.00000000     360.00000000      44.00554502       1.47109661
      28.60000000      90.00000000     360.00000000      44.00558656       1.47109800
      28.70000000      90.00000000     360.00000000      44.00562810       1.47109938
      28.80000000      90.00000000     360.00000000      44.00566964       1.47110077
      28.90000000      90.00000000     360.00000000      44.00571119       1.47110216
      29.00000000      90.00000000     360.00000000      44.00575275       1.47110355
      29.10000000      90.00000000     360.00000000      44.00579431       1.47110494
      29.20000000      90.00000000     360.00000000      44.00583587       1.47110633
      29.30000000      90.00000000     360.00000000      44.00587744       1.47110772
      29.40000000      90.00000000     360.00000000      44.00591901       1.47110911
      29.50000000      90.00000000     360.00000000      44.00596059       1.47111050
      29.60000000      90.00000000     360.00000000      44.00600217       1.47111189
      29.70000000      90.00000000     360.00000000      44.00604376       1.47111328
      29.80000000      90.00000000     360.00000000      44.00608535       1.47111467
      29.90000000      90.00000000     360.00000000      44.00612695       1.47111606
      30.00000000      90.00000000     360.00000000      44.00616855       1.47111745
      30.10000000      90.00000000     360.00000000      44.00621016       1.47111884
      30.20000000      90.00000000     360.00000000      44.00625177       1.47112023
      30.30000000      90.00000000     360.00000000      44.00629339       1.47112162
      30.40000000      90.00000000     360.00000000      44.00633501       1.47112302
      30.50000000      90.00000000     360.00000000      44.00637663       1.47112441
      30.60000000      90.00000000     360.00000000      44.00641826       1.47112580
      30.70000000      90.00000000     360.00000000      44.00645990       1.47112719
      30.80000000      90.00000000     360.00000000      44.00650154       1.47112858
      30.90000000      90.00000000     360.00000000      44.00654318       1.47112998
      31.00000000      90.00000000     360.00000000      44.00658483       1.47113137
      31.10000000      90.00000000     360.00000000      44.00662648       1.47113276
      31.20000000      90.00000000     360.00000000      44.00666814       1.47113415
      31.30000000      90.00000000     360.00000000      44.00670980       1.47113555
      31.40000000      90.00000000     360.00000000      44.00675147       1.47113694
      31.50000000      90.00000000     360.00000000      44.00679314       1.47113833
      31.60000000      90.00000000     360.00000000      44.00683482       1.47113972
      31.70000000      90.00000000     360.00000000      44.00687650       1.47114112
      31.80000000      90.00000000     360.00000000      44.00691819       1.47114251
      31.90000000      90.00000000     360.00000000      44.00695988       1.47114391
      32.00000000      90.00000000     360.00000000      44.00700158       1.47114530
      32.10000000      90.00000000     360.00000000      44.00704328       1.47114669
      32.20000000      90.00000000     360.00000000      44.00708498       1.47114809
      32.30000000      90.00000000     360.00000000      44.00712669       1.47114948
      32.40000000      90.00000000     360.00000000      44.00716841       1.47115088
      32.50000000      90.00000000     360.00000000      44.00721013       1.47115227
      32.60000000      90.00000000     360.00000000      44.00725185       1.47115367
      32.70000000      90.00000000     360.00000000      44.00729358       1.47115506
      32.80000000      90.00000000     360.00000000      44.00733531       1.47115646
      32.90000000      90.00000000     360.00000000      44.00737705       1.47115785
      33.00000000      90.00000000     360.00000000      44.00741879       1.47115925
      33.10000000      90.00000000     360.00000000      44.00746054       1.47116064
      33.20000000      90.00000000     360.00000000      44.00750230       1.47116204
      33.30000000      90.00000000     360.00000000      44.00754405       1.47116343
      33.40000000      90.00000000     360.00000000      44.00758581       1.47116483
      33.50000000      90.00000000     360.00000000      44.00762758       1.47116623
      33.60000000      90.00000000     360.00000000      44.00766935       1.47116762
      33.70000000      90.00000000     360.00000000      44.00771113       1.47116902
      33.80000000      90.00000000     360.00000000      44.00775291       1.47117042
      33.90000000      90.00000000     360.00000000      44.00779470       1.47117181
      34.00000000      90.00000000     360.00000000      44.00783649       1.47117321
      34.10000000      90.00000000     360.00000000      44.00787828       1.47117461
      34.20000000      90.00000000     360.00000000      44.00792008       1.47117600
      34.30000000      90.00000000     360.00000000      44.00796189       1.47117740
      34.40000000      90.00000000     360.00000000      44.00800370       1.47117880
      34.50000000      90.00000000     360.00000000      44.00804551       1.47118020
      34.60000000      90.00000000     360.00000000      44.00808733       1.47118160
      34.70000000      90.00000000     360.00000000      44.00812915       1.47118299
      34.80000000      90.00000000     360.00000000      44.00817098       1.47118439
      34.90000000      90.00000000     360.00000000      44.00821281       1.47118579
      35.00000000      90.00000000     360.00000000      44.00825465       1.47118719
      35.10000000      90.00000000     360.00000000      44.00829650       1.47118859
      35.20000000      90.00000000     360.00000000      44.00833834       1.47118999
      35.30000000      90.00000000     360.00000000      44.00838019       1.47119139
      35.40000000      90.00000000     360.00000000      44.00842205       1.47119279
      35.50000000      90.00000000     360.00000000      44.00846391       1.47119418
      35.60000000      90.00000000     360.00000000      44.00850578       1.47119558
      35.70000000      90.00000000     360.00000000      44.00854765       1.47119698
      35.80000000      90.00000000     360.00000000      44.00858953       1.47119838
      35.90000000      90.00000000     360.00000000      44.00863141       1.47119978
      36.00000000      90.00000000     360.00000000      44.00867329       1.47120118
      36.10000000      90.00000000     360.00000000      44.00871518       1.47120258
      36.20000000      90.00000000     360.00000000      44.00875708       1.47120399
      36.30000000      90.00000000     360.00000000      44.00879898       1.47120539
      36.40000000      90.00000000     360.00000000      44.00884088       1.47120679
      36.50000000      90.00000000     360.00000000      44.00888279       1.47120819
      36.60000000      90.00000000     360.00000000      44.00892471       1.47120959
      36.70000000      90.00000000     360.00000000      44.00896663       1.47121099
      36.80000000      90.00000000     360.00000000      44.00900855       1.47121239
      36.90000000      90.00000000     360.00000000      44.00905048       1.47121379
      37.00000000      90.00000000     360.00000000      44.00909241       1.47121520
      37.10000000      90.00000000     360.00000000      44.00913435       1.47121660
      37.20000000      90.00000000     360.00000000      44.00917629       1.47121800
      37.30000000      90.00000000     360.00000000      44.00921824       1.47121940
      37.40000000      90.00000000     360.00000000      44.00926019       1.47122080
      37.50000000      90.00000000     360.00000000      44.00930215       1.47122221
      37.60000000      90.00000000     360.00000000      44.00934411       1.47122361
      37.70000000      90.00000000     360.00000000      44.00938608       1.47122501
      37.80000000      90.00000000     360.00000000      44.00942805       1.47122642
      37.90000000      90.00000000     360.00000000      44.00947002       1.47122782
      38.00000000      90.00000000     360.00000000      44.00951200       1.47122922
      38.10000000      90.00000000     360.00000000      44.00955399       1.47123063
      38.20000000      90.00000000     360.00000000      44.00959598       1.47123203
      38.30000000      90.00000000     360.00000000      44.00963798       1.47123343
      38.40000000      90.00000000     360.00000000      44.00967998       1.47123484
      38.50000000      90.00000000     360.00000000      44.00972198       1.47123624
      38.60000000      90.00000000     360.00000000      44.00976399       1.47123765
      38.70000000      90.00000000     360.00000000      44.00980600       1.47123905
      38.80000000      90.00000000     360.00000000      44.00984802       1.47124046
      38.90000000      90.00000000     360.00000000      44.00989005       1.47124186
      39.00000000      90.00000000     360.00000000      44.00993208       1.47124327
      39.10000000      90.00000000     360.00000000      44.00997411       1.47124467
      39.20000000      90.00000000     360.00000000      44.01001615       1.47124608
      39.30000000      90.00000000     360.00000000      44.01005819       1.47124748
      39.40000000      90.00000000     360.00000000      44.01010024       1.47124889
      39.50000000      90.00000000     360.00000000      44.01014229       1.47125029
      39.60000000      90.00000000     360.00000000      44.01018435       1.47125170
      39.70000000      90.00000000     360.00000000      44.01022641       1.47125310
      39.80000000      90.00000000     360.00000000      44.01026848       1.47125451
      39.90000000      90.00000000     360.00000000      44.01031055       1.47125592
      40.00000000      90.00000000     360.00000000      44.01035263       1.47125732
