 # applied field (T), theta (degree), phi (degree), abs for RE 3-4
     0.00000   180.00000   360.00000     4.40501   180.00000   360.00000     4.40501
     0.10000   179.58100   219.55284     4.40500   179.58100   230.44716     4.40500
     0.20000   179.10962   219.55473     4.40497   179.10962   230.44527     4.40497
     0.30000   178.69046   219.55261     4.40493   178.69046   230.44739     4.40493
     0.40000   178.27115   219.55043     4.40487   178.27115   230.44957     4.40487
     0.50000   177.79926   219.54873     4.40478   177.79926   230.45127     4.40478
     0.60000   177.37949   219.54564     4.40468   177.37949   230.45436     4.40468
     0.70000   176.90696   219.54250     4.40455   176.90696   230.45750     4.40455
     0.80000   176.48652   219.53848     4.40441   176.48652   230.46152     4.40441
     0.90000    90.00000   217.26871     4.39734    90.00000   232.73129     4.39734
     1.00000    90.00000   217.26930     4.39730    90.00000   232.73070     4.39730
     1.10000    90.00000   217.26989     4.39726    90.00000   232.73011     4.39726
     1.20000    90.00000   217.27047     4.39722    90.00000   232.72953     4.39722
     1.30000    90.00000   217.27106     4.39718    90.00000   232.72894     4.39718
     1.40000    90.00000   217.27165     4.39714    90.00000   232.72835     4.39714
     1.50000    90.00000   217.27223     4.39710    90.00000   232.72777     4.39710
     1.60000    90.00000   217.27282     4.39706    90.00000   232.72718     4.39706
     1.70000    90.00000   217.27341     4.39702    90.00000   232.72659     4.39702
     1.80000    90.00000   217.27399     4.39698    90.00000   232.72601     4.39698
     1.90000    90.00000   217.27458     4.39694    90.00000   232.72542     4.39694
     2.00000    90.00000   217.27516     4.39690    90.00000   232.72484     4.39690
     2.10000    90.00000   217.27575     4.39686    90.00000   232.72425     4.39686
     2.20000    90.00000   217.27633     4.39682    90.00000   232.72367     4.39682
     2.30000    90.00000   217.27692     4.39678    90.00000   232.72308     4.39678
     2.40000    90.00000   217.27750     4.39674    90.00000   232.72250     4.39674
     2.50000    90.00000   217.27808     4.39670    90.00000   232.72192     4.39670
     2.60000    90.00000   217.27867     4.39666    90.00000   232.72133     4.39666
     2.70000    90.00000   217.27925     4.39662    90.00000   232.72075     4.39662
     2.80000    90.00000   217.27983     4.39658    90.00000   232.72017     4.39658
     2.90000    90.00000   217.28042     4.39654    90.00000   232.71958     4.39654
     3.00000    90.00000   217.28100     4.39650    90.00000   232.71900     4.39650
     3.10000    90.00000   217.28158     4.39646    90.00000   232.71842     4.39646
     3.20000    90.00000   217.28217     4.39642    90.00000   232.71783     4.39642
     3.30000    90.00000   217.28275     4.39638    90.00000   232.71725     4.39638
     3.40000    90.00000   217.28333     4.39634    90.00000   232.71667     4.39634
     3.50000    90.00000   217.28391     4.39630    90.00000   232.71609     4.39630
     3.60000    90.00000   217.28449     4.39626    90.00000   232.71551     4.39626
     3.70000    90.00000   217.28507     4.39622    90.00000   232.71493     4.39622
     3.80000    90.00000   217.28565     4.39618    90.00000   232.71435     4.39618
     3.90000    90.00000   217.28623     4.39614    90.00000   232.71377     4.39614
     4.00000    90.00000   217.28681     4.39610    90.00000   232.71319     4.39610
     4.10000    90.00000   217.28739     4.39606    90.00000   232.71261     4.39606
     4.20000    90.00000   217.28797     4.39602    90.00000   232.71203     4.39602
     4.30000    90.00000   217.28855     4.39598    90.00000   232.71145     4.39598
     4.40000    90.00000   217.28913     4.39594    90.00000   232.71087     4.39594
     4.50000    90.00000   217.28971     4.39590    90.00000   232.71029     4.39590
     4.60000    90.00000   217.29029     4.39585    90.00000   232.70971     4.39585
     4.70000    90.00000   217.29087     4.39581    90.00000   232.70913     4.39581
     4.80000    90.00000   217.29145     4.39577    90.00000   232.70855     4.39577
     4.90000    90.00000   217.29203     4.39573    90.00000   232.70797     4.39573
     5.00000    90.00000   217.29261     4.39569    90.00000   232.70739     4.39569
     5.10000    90.00000   217.29318     4.39565    90.00000   232.70682     4.39565
     5.20000    90.00000   217.29376     4.39561    90.00000   232.70624     4.39561
     5.30000    90.00000   217.29434     4.39557    90.00000   232.70566     4.39557
     5.40000    90.00000   217.29492     4.39553    90.00000   232.70508     4.39553
     5.50000    90.00000   217.29549     4.39549    90.00000   232.70451     4.39549
     5.60000    90.00000   217.29607     4.39545    90.00000   232.70393     4.39545
     5.70000    90.00000   217.29665     4.39541    90.00000   232.70335     4.39541
     5.80000    90.00000   217.29722     4.39537    90.00000   232.70278     4.39537
     5.90000    90.00000   217.29780     4.39533    90.00000   232.70220     4.39533
     6.00000    90.00000   217.29837     4.39529    90.00000   232.70163     4.39529
     6.10000    90.00000   217.29895     4.39525    90.00000   232.70105     4.39525
     6.20000    90.00000   217.29952     4.39521    90.00000   232.70048     4.39521
     6.30000    90.00000   217.30010     4.39517    90.00000   232.69990     4.39517
     6.40000    90.00000   217.30067     4.39513    90.00000   232.69933     4.39513
     6.50000    90.00000   217.30125     4.39509    90.00000   232.69875     4.39509
     6.60000    90.00000   217.30182     4.39505    90.00000   232.69818     4.39505
     6.70000    90.00000   217.30240     4.39501    90.00000   232.69760     4.39501
     6.80000    90.00000   217.30297     4.39497    90.00000   232.69703     4.39497
     6.90000    90.00000   217.30354     4.39493    90.00000   232.69646     4.39493
     7.00000    90.00000   217.30412     4.39489    90.00000   232.69588     4.39489
     7.10000    90.00000   217.30469     4.39485    90.00000   232.69531     4.39485
     7.20000    90.00000   217.30526     4.39481    90.00000   232.69474     4.39481
     7.30000    90.00000   217.30584     4.39477    90.00000   232.69416     4.39477
     7.40000    90.00000   217.30641     4.39473    90.00000   232.69359     4.39473
     7.50000    90.00000   217.30698     4.39469    90.00000   232.69302     4.39469
     7.60000    90.00000   217.30755     4.39465    90.00000   232.69245     4.39465
     7.70000    90.00000   217.30812     4.39461    90.00000   232.69188     4.39461
     7.80000    90.00000   217.30869     4.39457    90.00000   232.69131     4.39457
     7.90000    90.00000   217.30927     4.39453    90.00000   232.69073     4.39453
     8.00000    90.00000   217.30984     4.39449    90.00000   232.69016     4.39449
     8.10000    90.00000   217.31041     4.39445    90.00000   232.68959     4.39445
     8.20000    90.00000   217.31098     4.39441    90.00000   232.68902     4.39441
     8.30000    90.00000   217.31155     4.39437    90.00000   232.68845     4.39437
     8.40000    90.00000   217.31212     4.39433    90.00000   232.68788     4.39433
     8.50000    90.00000   217.31269     4.39429    90.00000   232.68731     4.39429
     8.60000    90.00000   217.31326     4.39425    90.00000   232.68674     4.39425
     8.70000    90.00000   217.31383     4.39420    90.00000   232.68617     4.39420
     8.80000    90.00000   217.31440     4.39416    90.00000   232.68560     4.39416
     8.90000    90.00000   217.31497     4.39412    90.00000   232.68503     4.39412
     9.00000    90.00000   217.31553     4.39408    90.00000   232.68447     4.39408
     9.10000    90.00000   217.31610     4.39404    90.00000   232.68390     4.39404
     9.20000    90.00000   217.31667     4.39400    90.00000   232.68333     4.39400
     9.30000    90.00000   217.31724     4.39396    90.00000   232.68276     4.39396
     9.40000    90.00000   217.31781     4.39392    90.00000   232.68219     4.39392
     9.50000    90.00000   217.31837     4.39388    90.00000   232.68163     4.39388
     9.60000    90.00000   217.31894     4.39384    90.00000   232.68106     4.39384
     9.70000    90.00000   217.31951     4.39380    90.00000   232.68049     4.39380
     9.80000    90.00000   217.32007     4.39376    90.00000   232.67993     4.39376
     9.90000    90.00000   217.32064     4.39372    90.00000   232.67936     4.39372
    10.00000    90.00000   217.32121     4.39368    90.00000   232.67879     4.39368
    10.10000    90.00000   217.32177     4.39364    90.00000   232.67823     4.39364
    10.20000    90.00000   217.32234     4.39360    90.00000   232.67766     4.39360
    10.30000    90.00000   217.32291     4.39356    90.00000   232.67709     4.39356
    10.40000    90.00000   217.32347     4.39352    90.00000   232.67653     4.39352
    10.50000    90.00000   217.32404     4.39348    90.00000   232.67596     4.39348
    10.60000    90.00000   217.32460     4.39344    90.00000   232.67540     4.39344
    10.70000    90.00000   217.32517     4.39340    90.00000   232.67483     4.39340
    10.80000    90.00000   217.32573     4.39336    90.00000   232.67427     4.39336
    10.90000    90.00000   217.32629     4.39332    90.00000   232.67371     4.39332
    11.00000    90.00000   217.32686     4.39328    90.00000   232.67314     4.39328
    11.10000    90.00000   217.32742     4.39324    90.00000   232.67258     4.39324
    11.20000    90.00000   217.32799     4.39319    90.00000   232.67201     4.39319
    11.30000    90.00000   217.32855     4.39315    90.00000   232.67145     4.39315
    11.40000    90.00000   217.32911     4.39311    90.00000   232.67089     4.39311
    11.50000    90.00000   217.32968     4.39307    90.00000   232.67032     4.39307
    11.60000    90.00000   217.33024     4.39303    90.00000   232.66976     4.39303
    11.70000    90.00000   217.33080     4.39299    90.00000   232.66920     4.39299
    11.80000    90.00000   217.33136     4.39295    90.00000   232.66864     4.39295
    11.90000    90.00000   217.33192     4.39291    90.00000   232.66808     4.39291
    12.00000    90.00000   217.33249     4.39287    90.00000   232.66751     4.39287
    12.10000    90.00000   217.33305     4.39283    90.00000   232.66695     4.39283
    12.20000    90.00000   217.33361     4.39279    90.00000   232.66639     4.39279
    12.30000    90.00000   217.33417     4.39275    90.00000   232.66583     4.39275
    12.40000    90.00000   217.33473     4.39271    90.00000   232.66527     4.39271
    12.50000    90.00000   217.33529     4.39267    90.00000   232.66471     4.39267
    12.60000    90.00000   217.33585     4.39263    90.00000   232.66415     4.39263
    12.70000    90.00000   217.33641     4.39259    90.00000   232.66359     4.39259
    12.80000    90.00000   217.33697     4.39255    90.00000   232.66303     4.39255
    12.90000    90.00000   217.33753     4.39251    90.00000   232.66247     4.39251
    13.00000    90.00000   217.33809     4.39247    90.00000   232.66191     4.39247
    13.10000    90.00000   217.33865     4.39243    90.00000   232.66135     4.39243
    13.20000    90.00000   217.33921     4.39238    90.00000   232.66079     4.39238
    13.30000    90.00000   217.33977     4.39234    90.00000   232.66023     4.39234
    13.40000    90.00000   217.34033     4.39230    90.00000   232.65967     4.39230
    13.50000    90.00000   217.34088     4.39226    90.00000   232.65912     4.39226
    13.60000    90.00000   217.34144     4.39222    90.00000   232.65856     4.39222
    13.70000    90.00000   217.34200     4.39218    90.00000   232.65800     4.39218
    13.80000    90.00000   217.34256     4.39214    90.00000   232.65744     4.39214
    13.90000    90.00000   217.34311     4.39210    90.00000   232.65689     4.39210
    14.00000    90.00000   217.34367     4.39206    90.00000   232.65633     4.39206
    14.10000    90.00000   217.34423     4.39202    90.00000   232.65577     4.39202
    14.20000    90.00000   217.34479     4.39198    90.00000   232.65521     4.39198
    14.30000    90.00000   217.34534     4.39194    90.00000   232.65466     4.39194
    14.40000    90.00000   217.34590     4.39190    90.00000   232.65410     4.39190
    14.50000    90.00000   217.34645     4.39186    90.00000   232.65355     4.39186
    14.60000    90.00000   217.34701     4.39182    90.00000   232.65299     4.39182
    14.70000    90.00000   217.34757     4.39178    90.00000   232.65243     4.39178
    14.80000    90.00000   217.34812     4.39174    90.00000   232.65188     4.39174
    14.90000    90.00000   217.34868     4.39169    90.00000   232.65132     4.39169
    15.00000    90.00000   217.34923     4.39165    90.00000   232.65077     4.39165
    15.10000    90.00000   217.34979     4.39161    90.00000   232.65021     4.39161
    15.20000    90.00000   217.35034     4.39157    90.00000   232.64966     4.39157
    15.30000    90.00000   217.35089     4.39153    90.00000   232.64911     4.39153
    15.40000    90.00000   217.35145     4.39149    90.00000   232.64855     4.39149
    15.50000    90.00000   217.35200     4.39145    90.00000   232.64800     4.39145
    15.60000    90.00000   217.35255     4.39141    90.00000   232.64745     4.39141
    15.70000    90.00000   217.35311     4.39137    90.00000   232.64689     4.39137
    15.80000    90.00000   217.35366     4.39133    90.00000   232.64634     4.39133
    15.90000    90.00000   217.35421     4.39129    90.00000   232.64579     4.39129
    16.00000    90.00000   217.35477     4.39125    90.00000   232.64523     4.39125
    16.10000    90.00000   217.35532     4.39121    90.00000   232.64468     4.39121
    16.20000    90.00000   217.35587     4.39117    90.00000   232.64413     4.39117
    16.30000    90.00000   217.35642     4.39113    90.00000   232.64358     4.39113
    16.40000    90.00000   217.35697     4.39108    90.00000   232.64303     4.39108
    16.50000    90.00000   217.35753     4.39104    90.00000   232.64247     4.39104
    16.60000    90.00000   217.35808     4.39100    90.00000   232.64192     4.39100
    16.70000    90.00000   217.35863     4.39096    90.00000   232.64137     4.39096
    16.80000    90.00000   217.35918     4.39092    90.00000   232.64082     4.39092
    16.90000    90.00000   217.35973     4.39088    90.00000   232.64027     4.39088
    17.00000    90.00000   217.36028     4.39084    90.00000   232.63972     4.39084
    17.10000    90.00000   217.36083     4.39080    90.00000   232.63917     4.39080
    17.20000    90.00000   217.36138     4.39076    90.00000   232.63862     4.39076
    17.30000    90.00000   217.36193     4.39072    90.00000   232.63807     4.39072
    17.40000    90.00000   217.36248     4.39068    90.00000   232.63752     4.39068
    17.50000    90.00000   217.36303     4.39064    90.00000   232.63697     4.39064
    17.60000    90.00000   217.36358     4.39060    90.00000   232.63642     4.39060
    17.70000    90.00000   217.36412     4.39055    90.00000   232.63588     4.39055
    17.80000    90.00000   217.36467     4.39051    90.00000   232.63533     4.39051
    17.90000    90.00000   217.36522     4.39047    90.00000   232.63478     4.39047
    18.00000    90.00000   217.36577     4.39043    90.00000   232.63423     4.39043
    18.10000    90.00000   217.36632     4.39039    90.00000   232.63368     4.39039
    18.20000    90.00000   217.36686     4.39035    90.00000   232.63314     4.39035
    18.30000    90.00000   217.36741     4.39031    90.00000   232.63259     4.39031
    18.40000    90.00000   217.36796     4.39027    90.00000   232.63204     4.39027
    18.50000    90.00000   217.36851     4.39023    90.00000   232.63149     4.39023
    18.60000    90.00000   217.36905     4.39019    90.00000   232.63095     4.39019
    18.70000    90.00000   217.36960     4.39015    90.00000   232.63040     4.39015
    18.80000    90.00000   217.37015     4.39011    90.00000   232.62985     4.39011
    18.90000    90.00000   217.37069     4.39007    90.00000   232.62931     4.39007
    19.00000    90.00000   217.37124     4.39002    90.00000   232.62876     4.39002
    19.10000    90.00000   217.37178     4.38998    90.00000   232.62822     4.38998
    19.20000    90.00000   217.37233     4.38994    90.00000   232.62767     4.38994
    19.30000    90.00000   217.37287     4.38990    90.00000   232.62713     4.38990
    19.40000    90.00000   217.37342     4.38986    90.00000   232.62658     4.38986
    19.50000    90.00000   217.37396     4.38982    90.00000   232.62604     4.38982
    19.60000    90.00000   217.37451     4.38978    90.00000   232.62549     4.38978
    19.70000    90.00000   217.37505     4.38974    90.00000   232.62495     4.38974
    19.80000    90.00000   217.37560     4.38970    90.00000   232.62440     4.38970
    19.90000    90.00000   217.37614     4.38966    90.00000   232.62386     4.38966
    20.00000    90.00000   217.37668     4.38962    90.00000   232.62332     4.38962
    20.10000    90.00000   217.37723     4.38957    90.00000   232.62277     4.38957
    20.20000    90.00000   217.37777     4.38953    90.00000   232.62223     4.38953
    20.30000    90.00000   217.37831     4.38949    90.00000   232.62169     4.38949
    20.40000    90.00000   217.37885     4.38945    90.00000   232.62115     4.38945
    20.50000    90.00000   217.37940     4.38941    90.00000   232.62060     4.38941
    20.60000    90.00000   217.37994     4.38937    90.00000   232.62006     4.38937
    20.70000    90.00000   217.38048     4.38933    90.00000   232.61952     4.38933
    20.80000    90.00000   217.38102     4.38929    90.00000   232.61898     4.38929
    20.90000    90.00000   217.38156     4.38925    90.00000   232.61844     4.38925
    21.00000    90.00000   217.38210     4.38921    90.00000   232.61790     4.38921
    21.10000    90.00000   217.38265     4.38917    90.00000   232.61735     4.38917
    21.20000    90.00000   217.38319     4.38912    90.00000   232.61681     4.38912
    21.30000    90.00000   217.38373     4.38908    90.00000   232.61627     4.38908
    21.40000    90.00000   217.38427     4.38904    90.00000   232.61573     4.38904
    21.50000    90.00000   217.38481     4.38900    90.00000   232.61519     4.38900
    21.60000    90.00000   217.38535     4.38896    90.00000   232.61465     4.38896
    21.70000    90.00000   217.38589     4.38892    90.00000   232.61411     4.38892
    21.80000    90.00000   217.38643     4.38888    90.00000   232.61357     4.38888
    21.90000    90.00000   217.38697     4.38884    90.00000   232.61303     4.38884
    22.00000    90.00000   217.38751     4.38880    90.00000   232.61249     4.38880
    22.10000    90.00000   217.38804     4.38876    90.00000   232.61196     4.38876
    22.20000    90.00000   217.38858     4.38872    90.00000   232.61142     4.38872
    22.30000    90.00000   217.38912     4.38867    90.00000   232.61088     4.38867
    22.40000    90.00000   217.38966     4.38863    90.00000   232.61034     4.38863
    22.50000    90.00000   217.39020     4.38859    90.00000   232.60980     4.38859
    22.60000    90.00000   217.39073     4.38855    90.00000   232.60927     4.38855
    22.70000    90.00000   217.39127     4.38851    90.00000   232.60873     4.38851
    22.80000    90.00000   217.39181     4.38847    90.00000   232.60819     4.38847
    22.90000    90.00000   217.39235     4.38843    90.00000   232.60765     4.38843
    23.00000    90.00000   217.39288     4.38839    90.00000   232.60712     4.38839
    23.10000    90.00000   217.39342     4.38835    90.00000   232.60658     4.38835
    23.20000    90.00000   217.39396     4.38831    90.00000   232.60604     4.38831
    23.30000    90.00000   217.39449     4.38826    90.00000   232.60551     4.38826
    23.40000    90.00000   217.39503     4.38822    90.00000   232.60497     4.38822
    23.50000    90.00000   217.39556     4.38818    90.00000   232.60444     4.38818
    23.60000    90.00000   217.39610     4.38814    90.00000   232.60390     4.38814
    23.70000    90.00000   217.39663     4.38810    90.00000   232.60337     4.38810
    23.80000    90.00000   217.39717     4.38806    90.00000   232.60283     4.38806
    23.90000    90.00000   217.39770     4.38802    90.00000   232.60230     4.38802
    24.00000    90.00000   217.39824     4.38798    90.00000   232.60176     4.38798
    24.10000    90.00000   217.39877     4.38794    90.00000   232.60123     4.38794
    24.20000    90.00000   217.39931     4.38789    90.00000   232.60069     4.38789
    24.30000    90.00000   217.39984     4.38785    90.00000   232.60016     4.38785
    24.40000    90.00000   217.40037     4.38781    90.00000   232.59963     4.38781
    24.50000    90.00000   217.40091     4.38777    90.00000   232.59909     4.38777
    24.60000    90.00000   217.40144     4.38773    90.00000   232.59856     4.38773
    24.70000    90.00000   217.40197     4.38769    90.00000   232.59803     4.38769
    24.80000    90.00000   217.40251     4.38765    90.00000   232.59749     4.38765
    24.90000    90.00000   217.40304     4.38761    90.00000   232.59696     4.38761
    25.00000    90.00000   217.40357     4.38757    90.00000   232.59643     4.38757
    25.10000    90.00000   217.40410     4.38752    90.00000   232.59590     4.38752
    25.20000    90.00000   217.40464     4.38748    90.00000   232.59536     4.38748
    25.30000    90.00000   217.40517     4.38744    90.00000   232.59483     4.38744
    25.40000    90.00000   217.40570     4.38740    90.00000   232.59430     4.38740
    25.50000    90.00000   217.40623     4.38736    90.00000   232.59377     4.38736
    25.60000    90.00000   217.40676     4.38732    90.00000   232.59324     4.38732
    25.70000    90.00000   217.40729     4.38728    90.00000   232.59271     4.38728
    25.80000    90.00000   217.40782     4.38724    90.00000   232.59218     4.38724
    25.90000    90.00000   217.40835     4.38720    90.00000   232.59165     4.38720
    26.00000    90.00000   217.40888     4.38715    90.00000   232.59112     4.38715
    26.10000    90.00000   217.40941     4.38711    90.00000   232.59059     4.38711
    26.20000    90.00000   217.40994     4.38707    90.00000   232.59006     4.38707
    26.30000    90.00000   217.41047     4.38703    90.00000   232.58953     4.38703
    26.40000    90.00000   217.41100     4.38699    90.00000   232.58900     4.38699
    26.50000    90.00000   217.41153     4.38695    90.00000   232.58847     4.38695
    26.60000    90.00000   217.41206     4.38691    90.00000   232.58794     4.38691
    26.70000    90.00000   217.41259     4.38687    90.00000   232.58741     4.38687
    26.80000    90.00000   217.41312     4.38682    90.00000   232.58688     4.38682
    26.90000    90.00000   217.41364     4.38678    90.00000   232.58636     4.38678
    27.00000    90.00000   217.41417     4.38674    90.00000   232.58583     4.38674
    27.10000    90.00000   217.41470     4.38670    90.00000   232.58530     4.38670
    27.20000    90.00000   217.41523     4.38666    90.00000   232.58477     4.38666
    27.30000    90.00000   217.41575     4.38662    90.00000   232.58425     4.38662
    27.40000    90.00000   217.41628     4.38658    90.00000   232.58372     4.38658
    27.50000    90.00000   217.41681     4.38654    90.00000   232.58319     4.38654
    27.60000    90.00000   217.41734     4.38649    90.00000   232.58266     4.38649
    27.70000    90.00000   217.41786     4.38645    90.00000   232.58214     4.38645
    27.80000    90.00000   217.41839     4.38641    90.00000   232.58161     4.38641
    27.90000    90.00000   217.41891     4.38637    90.00000   232.58109     4.38637
    28.00000    90.00000   217.41944     4.38633    90.00000   232.58056     4.38633
    28.10000    90.00000   217.41997     4.38629    90.00000   232.58003     4.38629
    28.20000    90.00000   217.42049     4.38625    90.00000   232.57951     4.38625
    28.30000    90.00000   217.42102     4.38621    90.00000   232.57898     4.38621
    28.40000    90.00000   217.42154     4.38616    90.00000   232.57846     4.38616
    28.50000    90.00000   217.42207     4.38612    90.00000   232.57793     4.38612
    28.60000    90.00000   217.42259     4.38608    90.00000   232.57741     4.38608
    28.70000    90.00000   217.42311     4.38604    90.00000   232.57689     4.38604
    28.80000    90.00000   217.42364     4.38600    90.00000   232.57636     4.38600
    28.90000    90.00000   217.42416     4.38596    90.00000   232.57584     4.38596
    29.00000    90.00000   217.42468     4.38592    90.00000   232.57532     4.38592
    29.10000    90.00000   217.42521     4.38588    90.00000   232.57479     4.38588
    29.20000    90.00000   217.42573     4.38583    90.00000   232.57427     4.38583
    29.30000    90.00000   217.42625     4.38579    90.00000   232.57375     4.38579
    29.40000    90.00000   217.42678     4.38575    90.00000   232.57322     4.38575
    29.50000    90.00000   217.42730     4.38571    90.00000   232.57270     4.38571
    29.60000    90.00000   217.42782     4.38567    90.00000   232.57218     4.38567
    29.70000    90.00000   217.42834     4.38563    90.00000   232.57166     4.38563
    29.80000    90.00000   217.42887     4.38559    90.00000   232.57113     4.38559
    29.90000    90.00000   217.42939     4.38554    90.00000   232.57061     4.38554
    30.00000    90.00000   217.42991     4.38550    90.00000   232.57009     4.38550
    30.10000    90.00000   217.43043     4.38546    90.00000   232.56957     4.38546
    30.20000    90.00000   217.43095     4.38542    90.00000   232.56905     4.38542
    30.30000    90.00000   217.43147     4.38538    90.00000   232.56853     4.38538
    30.40000    90.00000   217.43199     4.38534    90.00000   232.56801     4.38534
    30.50000    90.00000   217.43251     4.38530    90.00000   232.56749     4.38530
    30.60000    90.00000   217.43303     4.38526    90.00000   232.56697     4.38526
    30.70000    90.00000   217.43355     4.38521    90.00000   232.56645     4.38521
    30.80000    90.00000   217.43407     4.38517    90.00000   232.56593     4.38517
    30.90000    90.00000   217.43459     4.38513    90.00000   232.56541     4.38513
    31.00000    90.00000   217.43511     4.38509    90.00000   232.56489     4.38509
    31.10000    90.00000   217.43563     4.38505    90.00000   232.56437     4.38505
    31.20000    90.00000   217.43615     4.38501    90.00000   232.56385     4.38501
    31.30000    90.00000   217.43667     4.38497    90.00000   232.56333     4.38497
    31.40000    90.00000   217.43718     4.38492    90.00000   232.56282     4.38492
    31.50000    90.00000   217.43770     4.38488    90.00000   232.56230     4.38488
    31.60000    90.00000   217.43822     4.38484    90.00000   232.56178     4.38484
    31.70000    90.00000   217.43874     4.38480    90.00000   232.56126     4.38480
    31.80000    90.00000   217.43926     4.38476    90.00000   232.56074     4.38476
    31.90000    90.00000   217.43977     4.38472    90.00000   232.56023     4.38472
    32.00000    90.00000   217.44029     4.38468    90.00000   232.55971     4.38468
    32.10000    90.00000   217.44081     4.38463    90.00000   232.55919     4.38463
    32.20000    90.00000   217.44132     4.38459    90.00000   232.55868     4.38459
    32.30000    90.00000   217.44184     4.38455    90.00000   232.55816     4.38455
    32.40000    90.00000   217.44236     4.38451    90.00000   232.55764     4.38451
    32.50000    90.00000   217.44287     4.38447    90.00000   232.55713     4.38447
    32.60000    90.00000   217.44339     4.38443    90.00000   232.55661     4.38443
    32.70000    90.00000   217.44390     4.38438    90.00000   232.55610     4.38438
    32.80000    90.00000   217.44442     4.38434    90.00000   232.55558     4.38434
    32.90000    90.00000   217.44493     4.38430    90.00000   232.55507     4.38430
    33.00000    90.00000   217.44545     4.38426    90.00000   232.55455     4.38426
    33.10000    90.00000   217.44596     4.38422    90.00000   232.55404     4.38422
    33.20000    90.00000   217.44648     4.38418    90.00000   232.55352     4.38418
    33.30000    90.00000   217.44699     4.38414    90.00000   232.55301     4.38414
    33.40000    90.00000   217.44750     4.38409    90.00000   232.55250     4.38409
    33.50000    90.00000   217.44802     4.38405    90.00000   232.55198     4.38405
    33.60000    90.00000   217.44853     4.38401    90.00000   232.55147     4.38401
    33.70000    90.00000   217.44905     4.38397    90.00000   232.55095     4.38397
    33.80000    90.00000   217.44956     4.38393    90.00000   232.55044     4.38393
    33.90000    90.00000   217.45007     4.38389    90.00000   232.54993     4.38389
    34.00000    90.00000   217.45058     4.38384    90.00000   232.54942     4.38384
    34.10000    90.00000   217.45110     4.38380    90.00000   232.54890     4.38380
    34.20000    90.00000   217.45161     4.38376    90.00000   232.54839     4.38376
    34.30000    90.00000   217.45212     4.38372    90.00000   232.54788     4.38372
    34.40000    90.00000   217.45263     4.38368    90.00000   232.54737     4.38368
    34.50000    90.00000   217.45314     4.38364    90.00000   232.54686     4.38364
    34.60000    90.00000   217.45366     4.38360    90.00000   232.54634     4.38360
    34.70000    90.00000   217.45417     4.38355    90.00000   232.54583     4.38355
    34.80000    90.00000   217.45468     4.38351    90.00000   232.54532     4.38351
    34.90000    90.00000   217.45519     4.38347    90.00000   232.54481     4.38347
    35.00000    90.00000   217.45570     4.38343    90.00000   232.54430     4.38343
    35.10000    90.00000   217.45621     4.38339    90.00000   232.54379     4.38339
    35.20000    90.00000   217.45672     4.38335    90.00000   232.54328     4.38335
    35.30000    90.00000   217.45723     4.38330    90.00000   232.54277     4.38330
    35.40000    90.00000   217.45774     4.38326    90.00000   232.54226     4.38326
    35.50000    90.00000   217.45825     4.38322    90.00000   232.54175     4.38322
    35.60000    90.00000   217.45876     4.38318    90.00000   232.54124     4.38318
    35.70000    90.00000   217.45927     4.38314    90.00000   232.54073     4.38314
    35.80000    90.00000   217.45978     4.38310    90.00000   232.54022     4.38310
    35.90000    90.00000   217.46028     4.38305    90.00000   232.53972     4.38305
    36.00000    90.00000   217.46079     4.38301    90.00000   232.53921     4.38301
    36.10000    90.00000   217.46130     4.38297    90.00000   232.53870     4.38297
    36.20000    90.00000   217.46181     4.38293    90.00000   232.53819     4.38293
    36.30000    90.00000   217.46232     4.38289    90.00000   232.53768     4.38289
    36.40000    90.00000   217.46282     4.38285    90.00000   232.53718     4.38285
    36.50000    90.00000   217.46333     4.38280    90.00000   232.53667     4.38280
    36.60000    90.00000   217.46384     4.38276    90.00000   232.53616     4.38276
    36.70000    90.00000   217.46435     4.38272    90.00000   232.53565     4.38272
    36.80000    90.00000   217.46485     4.38268    90.00000   232.53515     4.38268
    36.90000    90.00000   217.46536     4.38264    90.00000   232.53464     4.38264
    37.00000    90.00000   217.46586     4.38260    90.00000   232.53414     4.38260
    37.10000    90.00000   217.46637     4.38255    90.00000   232.53363     4.38255
    37.20000    90.00000   217.46688     4.38251    90.00000   232.53312     4.38251
    37.30000    90.00000   217.46738     4.38247    90.00000   232.53262     4.38247
    37.40000    90.00000   217.46789     4.38243    90.00000   232.53211     4.38243
    37.50000    90.00000   217.46839     4.38239    90.00000   232.53161     4.38239
    37.60000    90.00000   217.46890     4.38235    90.00000   232.53110     4.38235
    37.70000    90.00000   217.46940     4.38230    90.00000   232.53060     4.38230
    37.80000    90.00000   217.46991     4.38226    90.00000   232.53009     4.38226
    37.90000    90.00000   217.47041     4.38222    90.00000   232.52959     4.38222
    38.00000    90.00000   217.47092     4.38218    90.00000   232.52908     4.38218
    38.10000    90.00000   217.47142     4.38214    90.00000   232.52858     4.38214
    38.20000    90.00000   217.47192     4.38210    90.00000   232.52808     4.38210
    38.30000    90.00000   217.47243     4.38205    90.00000   232.52757     4.38205
    38.40000    90.00000   217.47293     4.38201    90.00000   232.52707     4.38201
    38.50000    90.00000   217.47343     4.38197    90.00000   232.52657     4.38197
    38.60000    90.00000   217.47394     4.38193    90.00000   232.52606     4.38193
    38.70000    90.00000   217.47444     4.38189    90.00000   232.52556     4.38189
    38.80000    90.00000   217.47494     4.38184    90.00000   232.52506     4.38184
    38.90000    90.00000   217.47544     4.38180    90.00000   232.52456     4.38180
    39.00000    90.00000   217.47594     4.38176    90.00000   232.52406     4.38176
    39.10000    90.00000   217.47645     4.38172    90.00000   232.52355     4.38172
    39.20000    90.00000   217.47695     4.38168    90.00000   232.52305     4.38168
    39.30000    90.00000   217.47745     4.38164    90.00000   232.52255     4.38164
    39.40000    90.00000   217.47795     4.38159    90.00000   232.52205     4.38159
    39.50000    90.00000   217.47845     4.38155    90.00000   232.52155     4.38155
    39.60000    90.00000   217.47895     4.38151    90.00000   232.52105     4.38151
    39.70000    90.00000   217.47945     4.38147    90.00000   232.52055     4.38147
    39.80000    90.00000   217.47995     4.38143    90.00000   232.52005     4.38143
    39.90000    90.00000   217.48045     4.38138    90.00000   232.51955     4.38138
    40.00000    90.00000   217.48095     4.38134    90.00000   232.51905     4.38134
