 # applied field (T), theta (degree), phi (degree), abs for RE 3-4
     0.00000     0.00000     0.00000     3.85910     0.00000     0.00000     3.85910
     0.10000     0.20241   360.00000     3.85908     0.23065   360.00000     3.85909
     0.20000     0.44482   360.00000     3.85900     0.50690   360.00000     3.85907
     0.30000     0.64724   360.00000     3.85888     0.73756   360.00000     3.85903
     0.40000     0.84966   360.00000     3.85873     0.96824   360.00000     3.85898
     0.50000     1.09210   360.00000     3.85848     1.24452   360.00000     3.85890
     0.60000     1.29456   360.00000     3.85823     1.47522   360.00000     3.85882
     0.70000     1.49703   360.00000     3.85794     1.70594   360.00000     3.85873
     0.80000     1.73957   360.00000     3.85753     1.98230   360.00000     3.85860
     0.90000     1.94211   360.00000     3.85715     2.21307   360.00000     3.85848
     1.00000     2.14469   360.00000     3.85672     2.44387   360.00000     3.85834
     1.10000     2.38737   360.00000     3.85615     2.72033   360.00000     3.85816
     1.20000     2.59005   360.00000     3.85563     2.95120   360.00000     3.85799
     1.30000     2.83287   360.00000     3.85495     3.22775   360.00000     3.85778
     1.40000     3.03567   360.00000     3.85433     3.45871   360.00000     3.85758
     1.50000     3.23854   360.00000     3.85367     3.68971   360.00000     3.85737
     1.60000     3.48159   360.00000     3.85283     3.96643   360.00000     3.85710
     1.70000     3.68461   360.00000     3.85208     4.19754   360.00000     3.85686
     1.80000     3.88771   360.00000     3.85129     4.42869   360.00000     3.85661
     1.90000     4.13106   360.00000     3.85028     4.70562   360.00000     3.85629
     2.00000     4.33434   360.00000     3.84940     4.93690   360.00000     3.85600
     2.10000     4.53772   360.00000     3.84847     5.16825   360.00000     3.85571
     2.20000     4.78141   360.00000     3.84731     5.44542   360.00000     3.85533
     2.30000     4.98500   360.00000     3.84629     5.67691   360.00000     3.85501
     2.40000     5.18869   360.00000     3.84523     5.90848   360.00000     3.85467
     2.50000     5.43279   360.00000     3.84390     6.18592   360.00000     3.85424
     2.60000     5.63673   360.00000     3.84275     6.41765   360.00000     3.85387
     2.70000     5.88113   360.00000     3.84131     6.69530   360.00000     3.85341
     2.80000     6.08534   360.00000     3.84007     6.92722   360.00000     3.85301
     2.90000     6.28967   360.00000     3.83878     7.15922   360.00000     3.85259
     3.00000     6.53457   360.00000     3.83719     7.43721   360.00000     3.85208
     3.10000     6.73920   360.00000     3.83581     7.66942   360.00000     3.85163
     3.20000     6.94398   360.00000     3.83439     7.90173   360.00000     3.85118
     3.30000     7.18943   360.00000     3.83264     8.18009   360.00000     3.85061
     3.40000     7.39453   360.00000     3.83113     8.41263   360.00000     3.85012
     3.50000     7.59980   360.00000     3.82958     8.64527   360.00000     3.84962
     3.60000     7.84585   360.00000     3.82767     8.92405   360.00000     3.84900
     3.70000     8.05148   360.00000     3.82603     9.15693   360.00000     3.84846
     3.80000     8.29799   360.00000     3.82401     9.43602   360.00000     3.84781
     3.90000     8.50400   360.00000     3.82228     9.66917   360.00000     3.84724
     4.00000     8.71020   360.00000     3.82051     9.90244   360.00000     3.84667
     4.10000     8.95741   360.00000     3.81833    10.18201   360.00000     3.84596
     4.20000     9.16403   360.00000     3.81648    10.41557   360.00000     3.84535
     4.30000     9.41176   360.00000     3.81420    10.69549   360.00000     3.84460
     4.40000     9.61882   360.00000     3.81225    10.92935   360.00000     3.84396
     4.50000     9.82609   360.00000     3.81026    11.16335   360.00000     3.84331
     4.60000    10.07462   360.00000     3.80783    11.44381   360.00000     3.84251
     4.70000    10.28237   360.00000     3.80576    11.67814   360.00000     3.84183
     4.80000    10.49035   360.00000     3.80364    11.91261   360.00000     3.84113
     4.90000    10.73975   360.00000     3.80106    12.19366   360.00000     3.84027
     5.00000    10.94823   360.00000     3.79886    12.42848   360.00000     3.83955
     5.10000    11.19826   360.00000     3.79617    12.70996   360.00000     3.83865
     5.20000    11.40729   360.00000     3.79388    12.94514   360.00000     3.83789
     5.30000    11.61656   360.00000     3.79156    13.18050   360.00000     3.83712
     5.40000    11.86756   360.00000     3.78872    13.46263   360.00000     3.83617
     5.50000    12.07741   360.00000     3.78631    13.69837   360.00000     3.83537
     5.60000    12.32911   360.00000     3.78337    13.98098   360.00000     3.83438
     5.70000    12.53956   360.00000     3.78088    14.21712   360.00000     3.83355
     5.80000    12.79199   360.00000     3.77784    14.50022   360.00000     3.83253
     5.90000    13.00306   360.00000     3.77526    14.73679   360.00000     3.83166
     6.00000    13.21443   360.00000     3.77265    14.97355   360.00000     3.83078
     6.10000    13.46798   360.00000     3.76947    15.25740   360.00000     3.82970
     6.20000    13.68001   360.00000     3.76677    15.49461   360.00000     3.82879
     6.30000    13.93438   360.00000     3.76349    15.77901   360.00000     3.82767
     6.40000    14.14709   360.00000     3.76071    16.01668   360.00000     3.82673
     6.50000    14.40230   360.00000     3.75734    16.30164   360.00000     3.82558
     6.60000    14.61573   360.00000     3.75448    16.53979   360.00000     3.82460
     6.70000    14.82950   360.00000     3.75159    16.77816   360.00000     3.82361
     6.80000    15.08600   360.00000     3.74807    17.06399   360.00000     3.82240
     6.90000    15.30053   360.00000     3.74510    17.30287   360.00000     3.82138
     7.00000    15.55795   360.00000     3.74150    17.58931   360.00000     3.82013
     7.10000    15.77327   360.00000     3.73845    17.82871   360.00000     3.81908
     7.20000    16.03167   360.00000     3.73475    18.11579   360.00000     3.81780
     7.30000    16.24781   360.00000     3.73163    18.35574   360.00000     3.81671
     7.40000    16.50721   360.00000     3.72784    18.64348   360.00000     3.81539
     7.50000    16.72421   360.00000     3.72464    18.88399   360.00000     3.81427
     7.60000    16.98465   360.00000     3.72076    19.17241   360.00000     3.81291
     7.70000    17.20253   360.00000     3.71749    19.41350   360.00000     3.81176
     7.80000    17.46406   360.00000     3.71353    19.70263   360.00000     3.81036
     7.90000    17.68285   360.00000     3.71019    19.94431   360.00000     3.80918
     8.00000    17.94550   360.00000     3.70614    20.23418   360.00000     3.80773
     8.10000    18.16525   360.00000     3.70273    20.47648   360.00000     3.80652
     8.20000    18.42905   360.00000     3.69859    20.76710   360.00000     3.80504
     8.30000    18.64978   360.00000     3.69512    21.01003   360.00000     3.80380
     8.40000    18.91478   360.00000     3.69090    21.30143   360.00000     3.80228
     8.50000    19.13653   360.00000     3.68736    21.54502   360.00000     3.80100
     8.60000    19.40277   360.00000     3.68306    21.83722   360.00000     3.79945
     8.70000    19.62556   360.00000     3.67945    22.08149   360.00000     3.79814
     8.80000    19.89309   360.00000     3.67508    22.37451   360.00000     3.79654
     8.90000    20.11697   360.00000     3.67141    22.61948   360.00000     3.79520
     9.00000    20.38581   360.00000     3.66696    22.91335   360.00000     3.79356
     9.10000    20.65540   360.00000     3.66247    23.20770   360.00000     3.79191
     9.20000    20.88103   360.00000     3.65870    23.45378   360.00000     3.79052
     9.30000    21.15201   360.00000     3.65415    23.74902   360.00000     3.78882
     9.40000    21.37882   360.00000     3.65032    23.99585   360.00000     3.78740
     9.50000    21.65124   360.00000     3.64569    24.29200   360.00000     3.78566
     9.60000    21.87927   360.00000     3.64181    24.53960   360.00000     3.78421
     9.70000    22.15316   360.00000     3.63711    24.83669   360.00000     3.78244
     9.80000    22.42789   360.00000     3.63238    25.13430   360.00000     3.78064
     9.90000    22.65787   360.00000     3.62841    25.38313   360.00000     3.77914
    10.00000    22.93415   360.00000     3.62362    25.68172   360.00000     3.77730
    10.10000    23.21130   360.00000     3.61879    25.98086   360.00000     3.77545
    10.20000    23.44333   360.00000     3.61474    26.23098   360.00000     3.77390
    10.30000    23.72211   360.00000     3.60986    26.53114   360.00000     3.77200
    10.40000    24.00180   360.00000     3.60494    26.83186   360.00000     3.77009
    10.50000    24.23598   360.00000     3.60082    27.08332   360.00000     3.76848
    10.60000    24.51737   360.00000     3.59585    27.38510   360.00000     3.76653
    10.70000    24.79971   360.00000     3.59085    27.68748   360.00000     3.76456
    10.80000    25.03613   360.00000     3.58667    27.94033   360.00000     3.76291
    10.90000    25.32026   360.00000     3.58162    28.24381   360.00000     3.76090
    11.00000    25.60538   360.00000     3.57654    28.54790   360.00000     3.75886
    11.10000    25.84415   360.00000     3.57229    28.80220   360.00000     3.75716
    11.20000    26.13113   360.00000     3.56717    29.10744   360.00000     3.75509
    11.30000    26.41914   360.00000     3.56203    29.41331   360.00000     3.75300
    11.40000    26.70821   360.00000     3.55686    29.71983   360.00000     3.75089
    11.50000    26.95033   360.00000     3.55255    29.97617   360.00000     3.74912
    11.60000    27.24137   360.00000     3.54734    30.28390   360.00000     3.74697
    11.70000    27.53351   360.00000     3.54212    30.59230   360.00000     3.74480
    11.80000    27.82676   360.00000     3.53688    30.90137   360.00000     3.74261
    11.90000    28.12115   360.00000     3.53162    31.21113   360.00000     3.74041
    12.00000    28.41668   360.00000     3.52635    31.52159   360.00000     3.73818
    12.10000    28.66425   360.00000     3.52195    31.78124   360.00000     3.73631
    12.20000    28.96192   360.00000     3.51665    32.09299   360.00000     3.73404
    12.30000    29.26079   360.00000     3.51133    32.40546   360.00000     3.73176
    12.40000    29.56086   360.00000     3.50601    32.71866   360.00000     3.72945
    12.50000    29.86217   360.00000     3.50068    33.03260   360.00000     3.72713
    12.60000    30.16471   360.00000     3.49533    33.34728   360.00000     3.72478
    12.70000    30.46851   360.00000     3.48998    33.66272   360.00000     3.72242
    12.80000    30.77359   360.00000     3.48463    33.97892   360.00000     3.72004
    12.90000    31.07996   360.00000     3.47926    34.29589   360.00000     3.71764
    13.00000    31.38764   360.00000     3.47390    34.61365   360.00000     3.71522
    13.10000    31.69664   360.00000     3.46853    34.93219   360.00000     3.71278
    13.20000    32.00699   360.00000     3.46316    35.25153   360.00000     3.71032
    13.30000    32.31869   360.00000     3.45779    35.57168   360.00000     3.70784
    13.40000    32.63177   360.00000     3.45242    35.89264   360.00000     3.70535
    13.50000    32.94624   360.00000     3.44705    36.21443   360.00000     3.70284
    13.60000    33.26212   360.00000     3.44169    36.53706   360.00000     3.70031
    13.70000    33.57942   360.00000     3.43633    36.86052   360.00000     3.69776
    13.80000    33.89816   360.00000     3.43098    37.18484   360.00000     3.69520
    13.90000    34.21836   360.00000     3.42564    37.51002   360.00000     3.69262
    14.00000    34.54003   360.00000     3.42031    37.83606   360.00000     3.69002
    14.10000    34.91678   360.00000     3.41410    38.21718   360.00000     3.68696
    14.20000    35.24169   360.00000     3.40879    38.54514   360.00000     3.68432
    14.30000    35.56813   360.00000     3.40350    38.87399   360.00000     3.68167
    14.40000    35.89610   360.00000     3.39823    39.20375   360.00000     3.67901
    14.50000    36.28029   360.00000     3.39209    39.58926   360.00000     3.67587
    14.60000    36.61164   360.00000     3.38686    39.92101   360.00000     3.67317
    14.70000    36.94459   360.00000     3.38164    40.25370   360.00000     3.67046
    14.80000    37.33462   360.00000     3.37558    40.64265   360.00000     3.66726
    14.90000    37.67104   360.00000     3.37042    40.97739   360.00000     3.66452
    15.00000    38.00910   360.00000     3.36528    41.31308   360.00000     3.66176
    15.10000    38.40515   360.00000     3.35932    41.70559   360.00000     3.65851
    15.20000    38.74677   360.00000     3.35424    42.04339   360.00000     3.65572
    15.30000    39.14703   360.00000     3.34835    42.43838   360.00000     3.65244
    15.40000    39.49228   360.00000     3.34335    42.77834   360.00000     3.64963
    15.50000    39.89681   360.00000     3.33754    43.17586   360.00000     3.64631
    15.60000    40.30366   360.00000     3.33179    43.57476   360.00000     3.64299
    15.70000    40.65460   360.00000     3.32690    43.91809   360.00000     3.64013
    15.80000    41.06581   360.00000     3.32125    44.31959   360.00000     3.63678
    15.90000    41.47939   360.00000     3.31565    44.72251   360.00000     3.63341
    16.00000    41.83613   360.00000     3.31091    45.06930   360.00000     3.63052
    16.10000    42.25414   360.00000     3.30542    45.47488   360.00000     3.62712
    16.20000    42.67455   360.00000     3.30000    45.88191   360.00000     3.62372
    16.30000    43.09737   360.00000     3.29465    46.29041   360.00000     3.62030
    16.40000    43.52262   360.00000     3.28936    46.70037   360.00000     3.61687
    16.50000    43.95029   360.00000     3.28415    47.11182   360.00000     3.61343
    16.60000    44.38040   360.00000     3.27902    47.52477   360.00000     3.60999
    16.70000    44.81294   360.00000     3.27396    47.93922   360.00000     3.60653
    16.80000    45.24793   360.00000     3.26898    48.35519   360.00000     3.60307
    16.90000    45.68536   360.00000     3.26409    48.77268   360.00000     3.59960
    17.00000    46.12522   360.00000     3.25928    49.19170   360.00000     3.59612
    17.10000    46.63056   360.00000     3.25388    49.67220   360.00000     3.59213
    17.20000    47.07565   360.00000     3.24927    50.09455   360.00000     3.58864
    17.30000    47.52316   360.00000     3.24474    50.51846   360.00000     3.58515
    17.40000    48.03721   360.00000     3.23968    51.00458   360.00000     3.58115
    17.50000    48.48989   360.00000     3.23536    51.43186   360.00000     3.57766
    17.60000    49.00983   360.00000     3.23054    51.92186   360.00000     3.57366
    17.70000    49.53287   360.00000     3.22585    52.41394   360.00000     3.56966
    17.80000    49.99336   360.00000     3.22188    52.84646   360.00000     3.56617
    17.90000    50.52216   360.00000     3.21745    53.34248   360.00000     3.56217
    18.00000    51.05399   360.00000     3.21317    53.84060   360.00000     3.55818
    18.10000    51.58881   360.00000     3.20903    54.34084   360.00000     3.55420
    18.20000    52.12660   360.00000     3.20504    54.84320   360.00000     3.55023
    18.30000    52.66730   360.00000     3.20120    55.34769   360.00000     3.54627
    18.40000    53.27874   360.00000     3.19705    55.91757   360.00000     3.54181
    18.50000    53.82551   360.00000     3.19354    56.42660   360.00000     3.53788
    18.60000    54.44365   360.00000     3.18977    57.00159   360.00000     3.53346
    18.70000    54.99627   360.00000     3.18659    57.51515   360.00000     3.52956
    18.80000    55.62087   360.00000     3.18320    58.09526   360.00000     3.52519
    18.90000    56.24879   360.00000     3.18002    58.67808   360.00000     3.52084
    19.00000    56.87993   360.00000     3.17704    59.26359   360.00000     3.51653
    19.10000    57.51423   360.00000     3.17426    59.85181   360.00000     3.51224
    19.20000    58.15160   360.00000     3.17170    60.44271   360.00000     3.50800
    19.30000    58.86305   360.00000     3.16908    61.10225   360.00000     3.50331
    19.40000    59.57809   360.00000     3.16672    61.76508   360.00000     3.49868
    19.50000    60.22480   360.00000     3.16482    62.36458   360.00000     3.49456
    19.60000    60.94634   360.00000     3.16294    63.03361   360.00000     3.49003
    19.70000    61.74358   360.00000     3.16115    63.77314   360.00000     3.48512
    19.80000    62.47189   360.00000     3.15979    64.44894   360.00000     3.48072
    19.90000    63.27638   360.00000     3.15857    65.19583   360.00000     3.47596
    20.00000    64.08447   360.00000     3.15763    65.94652   360.00000     3.47129
    20.10000    64.96987   360.00000     3.15691    66.76959   360.00000     3.46629
    20.20000    65.85933   360.00000     3.15651    67.59704   360.00000     3.46141
    20.30000    66.75275   360.00000     3.15642    68.42878   360.00000     3.45665
    20.40000    67.72486   360.00000     3.15663    69.33447   360.00000     3.45164
    20.50000    68.70147   360.00000     3.15717    70.24498   360.00000     3.44679
    20.60000    69.75806   360.00000     3.15807    71.23066   360.00000     3.44176
    20.70000    70.89570   360.00000     3.15937    72.29249   360.00000     3.43658
    20.80000    72.03923   360.00000     3.16098    73.36010   360.00000     3.43166
    20.90000    73.34221   360.00000     3.16311    74.57660   360.00000     3.42638
    21.00000    74.73009   360.00000     3.16564    75.87190   360.00000     3.42118
    21.10000    76.28218   360.00000     3.16870    77.31921   360.00000     3.41586
    21.20000    78.00163   360.00000     3.17219    78.92027   360.00000     3.41063
    21.30000    80.04976   360.00000     3.17626    80.82317   360.00000     3.40528
    21.40000    82.67271   360.00000     3.18091    83.25239   360.00000     3.39989
    21.50000    87.25201   360.00000     3.18626    87.47398   360.00000     3.39440
    21.60000    90.00000   360.00000     3.18730    90.00000   360.00000     3.39360
    21.70000    90.00000   360.00000     3.18742    90.00000   360.00000     3.39371
    21.80000    90.00000   360.00000     3.18755    90.00000   360.00000     3.39382
    21.90000    90.00000   360.00000     3.18768    90.00000   360.00000     3.39393
    22.00000    90.00000   360.00000     3.18781    90.00000   360.00000     3.39404
    22.10000    90.00000   360.00000     3.18793    90.00000   360.00000     3.39415
    22.20000    90.00000   360.00000     3.18806    90.00000   360.00000     3.39426
    22.30000    90.00000   360.00000     3.18819    90.00000   360.00000     3.39437
    22.40000    90.00000   360.00000     3.18831    90.00000   360.00000     3.39448
    22.50000    90.00000   360.00000     3.18844    90.00000   360.00000     3.39458
    22.60000    90.00000   360.00000     3.18857    90.00000   360.00000     3.39469
    22.70000    90.00000   360.00000     3.18869    90.00000   360.00000     3.39480
    22.80000    90.00000   360.00000     3.18882    90.00000   360.00000     3.39491
    22.90000    90.00000   360.00000     3.18895    90.00000   360.00000     3.39502
    23.00000    90.00000   360.00000     3.18907    90.00000   360.00000     3.39513
    23.10000    90.00000   360.00000     3.18920    90.00000   360.00000     3.39524
    23.20000    90.00000   360.00000     3.18933    90.00000   360.00000     3.39535
    23.30000    90.00000   360.00000     3.18945    90.00000   360.00000     3.39546
    23.40000    90.00000   360.00000     3.18958    90.00000   360.00000     3.39557
    23.50000    90.00000   360.00000     3.18971    90.00000   360.00000     3.39568
    23.60000    90.00000   360.00000     3.18983    90.00000   360.00000     3.39579
    23.70000    90.00000   360.00000     3.18996    90.00000   360.00000     3.39590
    23.80000    90.00000   360.00000     3.19008    90.00000   360.00000     3.39601
    23.90000    90.00000   360.00000     3.19021    90.00000   360.00000     3.39612
    24.00000    90.00000   360.00000     3.19034    90.00000   360.00000     3.39623
    24.10000    90.00000   360.00000     3.19046    90.00000   360.00000     3.39634
    24.20000    90.00000   360.00000     3.19059    90.00000   360.00000     3.39644
    24.30000    90.00000   360.00000     3.19071    90.00000   360.00000     3.39655
    24.40000    90.00000   360.00000     3.19084    90.00000   360.00000     3.39666
    24.50000    90.00000   360.00000     3.19097    90.00000   360.00000     3.39677
    24.60000    90.00000   360.00000     3.19109    90.00000   360.00000     3.39688
    24.70000    90.00000   360.00000     3.19122    90.00000   360.00000     3.39699
    24.80000    90.00000   360.00000     3.19134    90.00000   360.00000     3.39710
    24.90000    90.00000   360.00000     3.19147    90.00000   360.00000     3.39721
    25.00000    90.00000   360.00000     3.19160    90.00000   360.00000     3.39732
    25.10000    90.00000   360.00000     3.19172    90.00000   360.00000     3.39743
    25.20000    90.00000   360.00000     3.19185    90.00000   360.00000     3.39753
    25.30000    90.00000   360.00000     3.19197    90.00000   360.00000     3.39764
    25.40000    90.00000   360.00000     3.19210    90.00000   360.00000     3.39775
    25.50000    90.00000   360.00000     3.19222    90.00000   360.00000     3.39786
    25.60000    90.00000   360.00000     3.19235    90.00000   360.00000     3.39797
    25.70000    90.00000   360.00000     3.19248    90.00000   360.00000     3.39808
    25.80000    90.00000   360.00000     3.19260    90.00000   360.00000     3.39819
    25.90000    90.00000   360.00000     3.19273    90.00000   360.00000     3.39830
    26.00000    90.00000   360.00000     3.19285    90.00000   360.00000     3.39840
    26.10000    90.00000   360.00000     3.19298    90.00000   360.00000     3.39851
    26.20000    90.00000   360.00000     3.19310    90.00000   360.00000     3.39862
    26.30000    90.00000   360.00000     3.19323    90.00000   360.00000     3.39873
    26.40000    90.00000   360.00000     3.19335    90.00000   360.00000     3.39884
    26.50000    90.00000   360.00000     3.19348    90.00000   360.00000     3.39895
    26.60000    90.00000   360.00000     3.19360    90.00000   360.00000     3.39906
    26.70000    90.00000   360.00000     3.19373    90.00000   360.00000     3.39916
    26.80000    90.00000   360.00000     3.19385    90.00000   360.00000     3.39927
    26.90000    90.00000   360.00000     3.19398    90.00000   360.00000     3.39938
    27.00000    90.00000   360.00000     3.19410    90.00000   360.00000     3.39949
    27.10000    90.00000   360.00000     3.19423    90.00000   360.00000     3.39960
    27.20000    90.00000   360.00000     3.19435    90.00000   360.00000     3.39971
    27.30000    90.00000   360.00000     3.19448    90.00000   360.00000     3.39981
    27.40000    90.00000   360.00000     3.19460    90.00000   360.00000     3.39992
    27.50000    90.00000   360.00000     3.19473    90.00000   360.00000     3.40003
    27.60000    90.00000   360.00000     3.19485    90.00000   360.00000     3.40014
    27.70000    90.00000   360.00000     3.19498    90.00000   360.00000     3.40025
    27.80000    90.00000   360.00000     3.19510    90.00000   360.00000     3.40036
    27.90000    90.00000   360.00000     3.19523    90.00000   360.00000     3.40046
    28.00000    90.00000   360.00000     3.19535    90.00000   360.00000     3.40057
    28.10000    90.00000   360.00000     3.19548    90.00000   360.00000     3.40068
    28.20000    90.00000   360.00000     3.19560    90.00000   360.00000     3.40079
    28.30000    90.00000   360.00000     3.19573    90.00000   360.00000     3.40090
    28.40000    90.00000   360.00000     3.19585    90.00000   360.00000     3.40100
    28.50000    90.00000   360.00000     3.19598    90.00000   360.00000     3.40111
    28.60000    90.00000   360.00000     3.19610    90.00000   360.00000     3.40122
    28.70000    90.00000   360.00000     3.19623    90.00000   360.00000     3.40133
    28.80000    90.00000   360.00000     3.19635    90.00000   360.00000     3.40144
    28.90000    90.00000   360.00000     3.19648    90.00000   360.00000     3.40154
    29.00000    90.00000   360.00000     3.19660    90.00000   360.00000     3.40165
    29.10000    90.00000   360.00000     3.19673    90.00000   360.00000     3.40176
    29.20000    90.00000   360.00000     3.19685    90.00000   360.00000     3.40187
    29.30000    90.00000   360.00000     3.19697    90.00000   360.00000     3.40197
    29.40000    90.00000   360.00000     3.19710    90.00000   360.00000     3.40208
    29.50000    90.00000   360.00000     3.19722    90.00000   360.00000     3.40219
    29.60000    90.00000   360.00000     3.19735    90.00000   360.00000     3.40230
    29.70000    90.00000   360.00000     3.19747    90.00000   360.00000     3.40240
    29.80000    90.00000   360.00000     3.19760    90.00000   360.00000     3.40251
    29.90000    90.00000   360.00000     3.19772    90.00000   360.00000     3.40262
    30.00000    90.00000   360.00000     3.19784    90.00000   360.00000     3.40273
    30.10000    90.00000   360.00000     3.19797    90.00000   360.00000     3.40283
    30.20000    90.00000   360.00000     3.19809    90.00000   360.00000     3.40294
    30.30000    90.00000   360.00000     3.19822    90.00000   360.00000     3.40305
    30.40000    90.00000   360.00000     3.19834    90.00000   360.00000     3.40316
    30.50000    90.00000   360.00000     3.19846    90.00000   360.00000     3.40326
    30.60000    90.00000   360.00000     3.19859    90.00000   360.00000     3.40337
    30.70000    90.00000   360.00000     3.19871    90.00000   360.00000     3.40348
    30.80000    90.00000   360.00000     3.19884    90.00000   360.00000     3.40359
    30.90000    90.00000   360.00000     3.19896    90.00000   360.00000     3.40369
    31.00000    90.00000   360.00000     3.19908    90.00000   360.00000     3.40380
    31.10000    90.00000   360.00000     3.19921    90.00000   360.00000     3.40391
    31.20000    90.00000   360.00000     3.19933    90.00000   360.00000     3.40402
    31.30000    90.00000   360.00000     3.19946    90.00000   360.00000     3.40412
    31.40000    90.00000   360.00000     3.19958    90.00000   360.00000     3.40423
    31.50000    90.00000   360.00000     3.19970    90.00000   360.00000     3.40434
    31.60000    90.00000   360.00000     3.19983    90.00000   360.00000     3.40444
    31.70000    90.00000   360.00000     3.19995    90.00000   360.00000     3.40455
    31.80000    90.00000   360.00000     3.20007    90.00000   360.00000     3.40466
    31.90000    90.00000   360.00000     3.20020    90.00000   360.00000     3.40476
    32.00000    90.00000   360.00000     3.20032    90.00000   360.00000     3.40487
    32.10000    90.00000   360.00000     3.20044    90.00000   360.00000     3.40498
    32.20000    90.00000   360.00000     3.20057    90.00000   360.00000     3.40509
    32.30000    90.00000   360.00000     3.20069    90.00000   360.00000     3.40519
    32.40000    90.00000   360.00000     3.20081    90.00000   360.00000     3.40530
    32.50000    90.00000   360.00000     3.20094    90.00000   360.00000     3.40541
    32.60000    90.00000   360.00000     3.20106    90.00000   360.00000     3.40551
    32.70000    90.00000   360.00000     3.20118    90.00000   360.00000     3.40562
    32.80000    90.00000   360.00000     3.20131    90.00000   360.00000     3.40573
    32.90000    90.00000   360.00000     3.20143    90.00000   360.00000     3.40583
    33.00000    90.00000   360.00000     3.20155    90.00000   360.00000     3.40594
    33.10000    90.00000   360.00000     3.20168    90.00000   360.00000     3.40605
    33.20000    90.00000   360.00000     3.20180    90.00000   360.00000     3.40615
    33.30000    90.00000   360.00000     3.20192    90.00000   360.00000     3.40626
    33.40000    90.00000   360.00000     3.20205    90.00000   360.00000     3.40637
    33.50000    90.00000   360.00000     3.20217    90.00000   360.00000     3.40647
    33.60000    90.00000   360.00000     3.20229    90.00000   360.00000     3.40658
    33.70000    90.00000   360.00000     3.20242    90.00000   360.00000     3.40669
    33.80000    90.00000   360.00000     3.20254    90.00000   360.00000     3.40679
    33.90000    90.00000   360.00000     3.20266    90.00000   360.00000     3.40690
    34.00000    90.00000   360.00000     3.20278    90.00000   360.00000     3.40700
    34.10000    90.00000   360.00000     3.20291    90.00000   360.00000     3.40711
    34.20000    90.00000   360.00000     3.20303    90.00000   360.00000     3.40722
    34.30000    90.00000   360.00000     3.20315    90.00000   360.00000     3.40732
    34.40000    90.00000   360.00000     3.20328    90.00000   360.00000     3.40743
    34.50000    90.00000   360.00000     3.20340    90.00000   360.00000     3.40754
    34.60000    90.00000   360.00000     3.20352    90.00000   360.00000     3.40764
    34.70000    90.00000   360.00000     3.20364    90.00000   360.00000     3.40775
    34.80000    90.00000   360.00000     3.20377    90.00000   360.00000     3.40785
    34.90000    90.00000   360.00000     3.20389    90.00000   360.00000     3.40796
    35.00000    90.00000   360.00000     3.20401    90.00000   360.00000     3.40807
    35.10000    90.00000   360.00000     3.20413    90.00000   360.00000     3.40817
    35.20000    90.00000   360.00000     3.20426    90.00000   360.00000     3.40828
    35.30000    90.00000   360.00000     3.20438    90.00000   360.00000     3.40838
    35.40000    90.00000   360.00000     3.20450    90.00000   360.00000     3.40849
    35.50000    90.00000   360.00000     3.20462    90.00000   360.00000     3.40860
    35.60000    90.00000   360.00000     3.20475    90.00000   360.00000     3.40870
    35.70000    90.00000   360.00000     3.20487    90.00000   360.00000     3.40881
    35.80000    90.00000   360.00000     3.20499    90.00000   360.00000     3.40891
    35.90000    90.00000   360.00000     3.20511    90.00000   360.00000     3.40902
    36.00000    90.00000   360.00000     3.20524    90.00000   360.00000     3.40913
    36.10000    90.00000   360.00000     3.20536    90.00000   360.00000     3.40923
    36.20000    90.00000   360.00000     3.20548    90.00000   360.00000     3.40934
    36.30000    90.00000   360.00000     3.20560    90.00000   360.00000     3.40944
    36.40000    90.00000   360.00000     3.20572    90.00000   360.00000     3.40955
    36.50000    90.00000   360.00000     3.20585    90.00000   360.00000     3.40965
    36.60000    90.00000   360.00000     3.20597    90.00000   360.00000     3.40976
    36.70000    90.00000   360.00000     3.20609    90.00000   360.00000     3.40987
    36.80000    90.00000   360.00000     3.20621    90.00000   360.00000     3.40997
    36.90000    90.00000   360.00000     3.20633    90.00000   360.00000     3.41008
    37.00000    90.00000   360.00000     3.20646    90.00000   360.00000     3.41018
    37.10000    90.00000   360.00000     3.20658    90.00000   360.00000     3.41029
    37.20000    90.00000   360.00000     3.20670    90.00000   360.00000     3.41039
    37.30000    90.00000   360.00000     3.20682    90.00000   360.00000     3.41050
    37.40000    90.00000   360.00000     3.20694    90.00000   360.00000     3.41060
    37.50000    90.00000   360.00000     3.20706    90.00000   360.00000     3.41071
    37.60000    90.00000   360.00000     3.20719    90.00000   360.00000     3.41082
    37.70000    90.00000   360.00000     3.20731    90.00000   360.00000     3.41092
    37.80000    90.00000   360.00000     3.20743    90.00000   360.00000     3.41103
    37.90000    90.00000   360.00000     3.20755    90.00000   360.00000     3.41113
    38.00000    90.00000   360.00000     3.20767    90.00000   360.00000     3.41124
    38.10000    90.00000   360.00000     3.20779    90.00000   360.00000     3.41134
    38.20000    90.00000   360.00000     3.20791    90.00000   360.00000     3.41145
    38.30000    90.00000   360.00000     3.20804    90.00000   360.00000     3.41155
    38.40000    90.00000   360.00000     3.20816    90.00000   360.00000     3.41166
    38.50000    90.00000   360.00000     3.20828    90.00000   360.00000     3.41176
    38.60000    90.00000   360.00000     3.20840    90.00000   360.00000     3.41187
    38.70000    90.00000   360.00000     3.20852    90.00000   360.00000     3.41197
    38.80000    90.00000   360.00000     3.20864    90.00000   360.00000     3.41208
    38.90000    90.00000   360.00000     3.20876    90.00000   360.00000     3.41218
    39.00000    90.00000   360.00000     3.20888    90.00000   360.00000     3.41229
    39.10000    90.00000   360.00000     3.20901    90.00000   360.00000     3.41239
    39.20000    90.00000   360.00000     3.20913    90.00000   360.00000     3.41250
    39.30000    90.00000   360.00000     3.20925    90.00000   360.00000     3.41260
    39.40000    90.00000   360.00000     3.20937    90.00000   360.00000     3.41271
    39.50000    90.00000   360.00000     3.20949    90.00000   360.00000     3.41281
    39.60000    90.00000   360.00000     3.20961    90.00000   360.00000     3.41292
    39.70000    90.00000   360.00000     3.20973    90.00000   360.00000     3.41302
    39.80000    90.00000   360.00000     3.20985    90.00000   360.00000     3.41313
    39.90000    90.00000   360.00000     3.20997    90.00000   360.00000     3.41323
    40.00000    90.00000   360.00000     3.21009    90.00000   360.00000     3.41334
