 # applied field (T), theta (degree), phi (degree), abs [muB/unitcell], abs [T]
       0.00000000       0.00000000       0.00000000      46.45194662       1.55287933
       0.10000000       0.39871186     360.00000000      46.45194960       1.55287942
       0.20000000       0.79742486     360.00000000      46.45195856       1.55287972
       0.30000000       1.19614012     360.00000000      46.45197348       1.55288022
       0.40000000       1.59485880     360.00000000      46.45199439       1.55288092
       0.50000000       1.99358201     360.00000000      46.45202128       1.55288182
       0.60000000       2.33544870     360.00000000      46.45204987       1.55288278
       0.70000000       2.73418333     360.00000000      46.45208803       1.55288405
       0.80000000       3.13292573     360.00000000      46.45213219       1.55288553
       0.90000000       3.53167702     360.00000000      46.45218237       1.55288721
       1.00000000       3.93043834     360.00000000      46.45223859       1.55288909
       1.10000000       4.32921080     360.00000000      46.45230086       1.55289117
       1.20000000       4.72799552     360.00000000      46.45236920       1.55289345
       1.30000000       5.12679363     360.00000000      46.45244362       1.55289594
       1.40000000       5.52560622     360.00000000      46.45252414       1.55289863
       1.50000000       5.92443442     360.00000000      46.45261079       1.55290153
       1.60000000       6.32327932     360.00000000      46.45270359       1.55290463
       1.70000000       6.77902473     360.00000000      46.45281494       1.55290835
       1.80000000       7.17790917     360.00000000      46.45292085       1.55291189
       1.90000000       7.57681376     360.00000000      46.45303298       1.55291564
       2.00000000       7.97573957     360.00000000      46.45315134       1.55291960
       2.10000000       8.37468770     360.00000000      46.45327597       1.55292377
       2.20000000       8.77365920     360.00000000      46.45340689       1.55292814
       2.30000000       9.22955768     360.00000000      46.45356122       1.55293330
       2.40000000       9.62858290     360.00000000      46.45370557       1.55293813
       2.50000000      10.02763482     360.00000000      46.45385628       1.55294316
       2.60000000      10.48362940     360.00000000      46.45403295       1.55294907
       2.70000000      10.88274207     360.00000000      46.45419725       1.55295456
       2.80000000      11.33880891     360.00000000      46.45438925       1.55296098
       2.90000000      11.73798702     360.00000000      46.45456725       1.55296693
       3.00000000      12.19413142     360.00000000      46.45477470       1.55297387
       3.10000000      12.65031935     360.00000000      46.45499037       1.55298108
       3.20000000      13.04960672     360.00000000      46.45518948       1.55298773
       3.30000000      13.50588013     360.00000000      46.45542074       1.55299546
       3.40000000      13.96220123     360.00000000      46.45566029       1.55300347
       3.50000000      14.41857140     360.00000000      46.45590814       1.55301176
       3.60000000      14.87499203     360.00000000      46.45616430       1.55302032
       3.70000000      15.33146446     360.00000000      46.45642878       1.55302916
       3.80000000      15.78799002     360.00000000      46.45670157       1.55303828
       3.90000000      16.24456999     360.00000000      46.45698268       1.55304768
       4.00000000      16.75820376     360.00000000      46.45730435       1.55305843
       4.10000000      17.21490365     360.00000000      46.45760297       1.55306842
       4.20000000      17.72867564     360.00000000      46.45794408       1.55307982
       4.30000000      18.18550087     360.00000000      46.45826010       1.55309038
       4.40000000      18.69941703     360.00000000      46.45862049       1.55310243
       4.50000000      19.21341186     360.00000000      46.45899095       1.55311482
       4.60000000      19.72748686     360.00000000      46.45937139       1.55312753
       4.70000000      20.29870204     360.00000000      46.45980107       1.55314190
       4.80000000      20.81295107     360.00000000      46.46020216       1.55315531
       4.90000000      21.38436323     360.00000000      46.46065432       1.55317042
       5.00000000      21.95588162     360.00000000      46.46111800       1.55318592
       5.10000000      22.52750783     360.00000000      46.46159297       1.55320180
       5.20000000      23.09924331     360.00000000      46.46207899       1.55321805
       5.30000000      23.72821352     360.00000000      46.46262144       1.55323618
       5.40000000      24.35731953     360.00000000      46.46317636       1.55325473
       5.50000000      24.98656277     360.00000000      46.46374334       1.55327369
       5.60000000      25.67310787     360.00000000      46.46437065       1.55329466
       5.70000000      26.35981944     360.00000000      46.46501092       1.55331606
       5.80000000      27.04669848     360.00000000      46.46566341       1.55333787
       5.90000000      27.79095287     360.00000000      46.46637899       1.55336180
       6.00000000      28.59262941     360.00000000      46.46715936       1.55338788
       6.10000000      29.45177815     360.00000000      46.46800581       1.55341618
       6.20000000      30.36845192     360.00000000      46.46891905       1.55344671
       6.30000000      31.28542484     360.00000000      46.46984406       1.55347763
       6.40000000      90.00000000     360.00000000      46.48901038       1.55411836
       6.50000000      90.00000000     360.00000000      46.48905429       1.55411983
       6.60000000      90.00000000     360.00000000      46.48909820       1.55412129
       6.70000000      90.00000000     360.00000000      46.48914211       1.55412276
       6.80000000      90.00000000     360.00000000      46.48918603       1.55412423
       6.90000000      90.00000000     360.00000000      46.48922996       1.55412570
       7.00000000      90.00000000     360.00000000      46.48927389       1.55412717
       7.10000000      90.00000000     360.00000000      46.48931783       1.55412864
       7.20000000      90.00000000     360.00000000      46.48936177       1.55413011
       7.30000000      90.00000000     360.00000000      46.48940572       1.55413158
       7.40000000      90.00000000     360.00000000      46.48944967       1.55413304
       7.50000000      90.00000000     360.00000000      46.48949363       1.55413451
       7.60000000      90.00000000     360.00000000      46.48953759       1.55413598
       7.70000000      90.00000000     360.00000000      46.48958156       1.55413745
       7.80000000      90.00000000     360.00000000      46.48962553       1.55413892
       7.90000000      90.00000000     360.00000000      46.48966951       1.55414039
       8.00000000      90.00000000     360.00000000      46.48971350       1.55414186
       8.10000000      90.00000000     360.00000000      46.48975749       1.55414334
       8.20000000      90.00000000     360.00000000      46.48980149       1.55414481
       8.30000000      90.00000000     360.00000000      46.48984549       1.55414628
       8.40000000      90.00000000     360.00000000      46.48988950       1.55414775
       8.50000000      90.00000000     360.00000000      46.48993351       1.55414922
       8.60000000      90.00000000     360.00000000      46.48997753       1.55415069
       8.70000000      90.00000000     360.00000000      46.49002155       1.55415216
       8.80000000      90.00000000     360.00000000      46.49006558       1.55415363
       8.90000000      90.00000000     360.00000000      46.49010962       1.55415511
       9.00000000      90.00000000     360.00000000      46.49015366       1.55415658
       9.10000000      90.00000000     360.00000000      46.49019770       1.55415805
       9.20000000      90.00000000     360.00000000      46.49024175       1.55415952
       9.30000000      90.00000000     360.00000000      46.49028581       1.55416100
       9.40000000      90.00000000     360.00000000      46.49032987       1.55416247
       9.50000000      90.00000000     360.00000000      46.49037394       1.55416394
       9.60000000      90.00000000     360.00000000      46.49041801       1.55416542
       9.70000000      90.00000000     360.00000000      46.49046209       1.55416689
       9.80000000      90.00000000     360.00000000      46.49050617       1.55416836
       9.90000000      90.00000000     360.00000000      46.49055026       1.55416984
      10.00000000      90.00000000     360.00000000      46.49059436       1.55417131
      10.10000000      90.00000000     360.00000000      46.49063846       1.55417279
      10.20000000      90.00000000     360.00000000      46.49068256       1.55417426
      10.30000000      90.00000000     360.00000000      46.49072668       1.55417573
      10.40000000      90.00000000     360.00000000      46.49077079       1.55417721
      10.50000000      90.00000000     360.00000000      46.49081491       1.55417868
      10.60000000      90.00000000     360.00000000      46.49085904       1.55418016
      10.70000000      90.00000000     360.00000000      46.49090318       1.55418164
      10.80000000      90.00000000     360.00000000      46.49094731       1.55418311
      10.90000000      90.00000000     360.00000000      46.49099146       1.55418459
      11.00000000      90.00000000     360.00000000      46.49103561       1.55418606
      11.10000000      90.00000000     360.00000000      46.49107976       1.55418754
      11.20000000      90.00000000     360.00000000      46.49112392       1.55418901
      11.30000000      90.00000000     360.00000000      46.49116809       1.55419049
      11.40000000      90.00000000     360.00000000      46.49121226       1.55419197
      11.50000000      90.00000000     360.00000000      46.49125644       1.55419344
      11.60000000      90.00000000     360.00000000      46.49130062       1.55419492
      11.70000000      90.00000000     360.00000000      46.49134481       1.55419640
      11.80000000      90.00000000     360.00000000      46.49138900       1.55419788
      11.90000000      90.00000000     360.00000000      46.49143320       1.55419935
      12.00000000      90.00000000     360.00000000      46.49147741       1.55420083
      12.10000000      90.00000000     360.00000000      46.49152162       1.55420231
      12.20000000      90.00000000     360.00000000      46.49156583       1.55420379
      12.30000000      90.00000000     360.00000000      46.49161005       1.55420527
      12.40000000      90.00000000     360.00000000      46.49165428       1.55420674
      12.50000000      90.00000000     360.00000000      46.49169851       1.55420822
      12.60000000      90.00000000     360.00000000      46.49174275       1.55420970
      12.70000000      90.00000000     360.00000000      46.49178699       1.55421118
      12.80000000      90.00000000     360.00000000      46.49183124       1.55421266
      12.90000000      90.00000000     360.00000000      46.49187549       1.55421414
      13.00000000      90.00000000     360.00000000      46.49191975       1.55421562
      13.10000000      90.00000000     360.00000000      46.49196402       1.55421710
      13.20000000      90.00000000     360.00000000      46.49200829       1.55421858
      13.30000000      90.00000000     360.00000000      46.49205256       1.55422006
      13.40000000      90.00000000     360.00000000      46.49209685       1.55422154
      13.50000000      90.00000000     360.00000000      46.49214113       1.55422302
      13.60000000      90.00000000     360.00000000      46.49218543       1.55422450
      13.70000000      90.00000000     360.00000000      46.49222972       1.55422598
      13.80000000      90.00000000     360.00000000      46.49227403       1.55422746
      13.90000000      90.00000000     360.00000000      46.49231834       1.55422894
      14.00000000      90.00000000     360.00000000      46.49236265       1.55423043
      14.10000000      90.00000000     360.00000000      46.49240697       1.55423191
      14.20000000      90.00000000     360.00000000      46.49245130       1.55423339
      14.30000000      90.00000000     360.00000000      46.49249563       1.55423487
      14.40000000      90.00000000     360.00000000      46.49253996       1.55423635
      14.50000000      90.00000000     360.00000000      46.49258431       1.55423783
      14.60000000      90.00000000     360.00000000      46.49262865       1.55423932
      14.70000000      90.00000000     360.00000000      46.49267301       1.55424080
      14.80000000      90.00000000     360.00000000      46.49271737       1.55424228
      14.90000000      90.00000000     360.00000000      46.49276173       1.55424377
      15.00000000      90.00000000     360.00000000      46.49280610       1.55424525
      15.10000000      90.00000000     360.00000000      46.49285047       1.55424673
      15.20000000      90.00000000     360.00000000      46.49289486       1.55424822
      15.30000000      90.00000000     360.00000000      46.49293924       1.55424970
      15.40000000      90.00000000     360.00000000      46.49298363       1.55425118
      15.50000000      90.00000000     360.00000000      46.49302803       1.55425267
      15.60000000      90.00000000     360.00000000      46.49307243       1.55425415
      15.70000000      90.00000000     360.00000000      46.49311684       1.55425564
      15.80000000      90.00000000     360.00000000      46.49316126       1.55425712
      15.90000000      90.00000000     360.00000000      46.49320568       1.55425861
      16.00000000      90.00000000     360.00000000      46.49325010       1.55426009
      16.10000000      90.00000000     360.00000000      46.49329453       1.55426158
      16.20000000      90.00000000     360.00000000      46.49333897       1.55426306
      16.30000000      90.00000000     360.00000000      46.49338341       1.55426455
      16.40000000      90.00000000     360.00000000      46.49342786       1.55426603
      16.50000000      90.00000000     360.00000000      46.49347231       1.55426752
      16.60000000      90.00000000     360.00000000      46.49351677       1.55426901
      16.70000000      90.00000000     360.00000000      46.49356123       1.55427049
      16.80000000      90.00000000     360.00000000      46.49360570       1.55427198
      16.90000000      90.00000000     360.00000000      46.49365017       1.55427347
      17.00000000      90.00000000     360.00000000      46.49369465       1.55427495
      17.10000000      90.00000000     360.00000000      46.49373914       1.55427644
      17.20000000      90.00000000     360.00000000      46.49378363       1.55427793
      17.30000000      90.00000000     360.00000000      46.49382813       1.55427942
      17.40000000      90.00000000     360.00000000      46.49387263       1.55428090
      17.50000000      90.00000000     360.00000000      46.49391714       1.55428239
      17.60000000      90.00000000     360.00000000      46.49396165       1.55428388
      17.70000000      90.00000000     360.00000000      46.49400617       1.55428537
      17.80000000      90.00000000     360.00000000      46.49405070       1.55428686
      17.90000000      90.00000000     360.00000000      46.49409523       1.55428834
      18.00000000      90.00000000     360.00000000      46.49413976       1.55428983
      18.10000000      90.00000000     360.00000000      46.49418430       1.55429132
      18.20000000      90.00000000     360.00000000      46.49422885       1.55429281
      18.30000000      90.00000000     360.00000000      46.49427340       1.55429430
      18.40000000      90.00000000     360.00000000      46.49431796       1.55429579
      18.50000000      90.00000000     360.00000000      46.49436252       1.55429728
      18.60000000      90.00000000     360.00000000      46.49440709       1.55429877
      18.70000000      90.00000000     360.00000000      46.49445167       1.55430026
      18.80000000      90.00000000     360.00000000      46.49449625       1.55430175
      18.90000000      90.00000000     360.00000000      46.49454083       1.55430324
      19.00000000      90.00000000     360.00000000      46.49458542       1.55430473
      19.10000000      90.00000000     360.00000000      46.49463002       1.55430622
      19.20000000      90.00000000     360.00000000      46.49467462       1.55430771
      19.30000000      90.00000000     360.00000000      46.49471923       1.55430921
      19.40000000      90.00000000     360.00000000      46.49476385       1.55431070
      19.50000000      90.00000000     360.00000000      46.49480846       1.55431219
      19.60000000      90.00000000     360.00000000      46.49485309       1.55431368
      19.70000000      90.00000000     360.00000000      46.49489772       1.55431517
      19.80000000      90.00000000     360.00000000      46.49494235       1.55431666
      19.90000000      90.00000000     360.00000000      46.49498700       1.55431816
      20.00000000      90.00000000     360.00000000      46.49503164       1.55431965
      20.10000000      90.00000000     360.00000000      46.49507630       1.55432114
      20.20000000      90.00000000     360.00000000      46.49512095       1.55432263
      20.30000000      90.00000000     360.00000000      46.49516562       1.55432413
      20.40000000      90.00000000     360.00000000      46.49521029       1.55432562
      20.50000000      90.00000000     360.00000000      46.49525496       1.55432711
      20.60000000      90.00000000     360.00000000      46.49529964       1.55432861
      20.70000000      90.00000000     360.00000000      46.49534433       1.55433010
      20.80000000      90.00000000     360.00000000      46.49538902       1.55433160
      20.90000000      90.00000000     360.00000000      46.49543372       1.55433309
      21.00000000      90.00000000     360.00000000      46.49547842       1.55433458
      21.10000000      90.00000000     360.00000000      46.49552313       1.55433608
      21.20000000      90.00000000     360.00000000      46.49556784       1.55433757
      21.30000000      90.00000000     360.00000000      46.49561256       1.55433907
      21.40000000      90.00000000     360.00000000      46.49565728       1.55434056
      21.50000000      90.00000000     360.00000000      46.49570201       1.55434206
      21.60000000      90.00000000     360.00000000      46.49574675       1.55434355
      21.70000000      90.00000000     360.00000000      46.49579149       1.55434505
      21.80000000      90.00000000     360.00000000      46.49583624       1.55434655
      21.90000000      90.00000000     360.00000000      46.49588099       1.55434804
      22.00000000      90.00000000     360.00000000      46.49592575       1.55434954
      22.10000000      90.00000000     360.00000000      46.49597051       1.55435104
      22.20000000      90.00000000     360.00000000      46.49601528       1.55435253
      22.30000000      90.00000000     360.00000000      46.49606006       1.55435403
      22.40000000      90.00000000     360.00000000      46.49610484       1.55435553
      22.50000000      90.00000000     360.00000000      46.49614963       1.55435702
      22.60000000      90.00000000     360.00000000      46.49619442       1.55435852
      22.70000000      90.00000000     360.00000000      46.49623922       1.55436002
      22.80000000      90.00000000     360.00000000      46.49628402       1.55436152
      22.90000000      90.00000000     360.00000000      46.49632883       1.55436301
      23.00000000      90.00000000     360.00000000      46.49637364       1.55436451
      23.10000000      90.00000000     360.00000000      46.49641846       1.55436601
      23.20000000      90.00000000     360.00000000      46.49646329       1.55436751
      23.30000000      90.00000000     360.00000000      46.49650812       1.55436901
      23.40000000      90.00000000     360.00000000      46.49655296       1.55437051
      23.50000000      90.00000000     360.00000000      46.49659780       1.55437201
      23.60000000      90.00000000     360.00000000      46.49664265       1.55437350
      23.70000000      90.00000000     360.00000000      46.49668750       1.55437500
      23.80000000      90.00000000     360.00000000      46.49673236       1.55437650
      23.90000000      90.00000000     360.00000000      46.49677722       1.55437800
      24.00000000      90.00000000     360.00000000      46.49682209       1.55437950
      24.10000000      90.00000000     360.00000000      46.49686697       1.55438100
      24.20000000      90.00000000     360.00000000      46.49691185       1.55438250
      24.30000000      90.00000000     360.00000000      46.49695674       1.55438400
      24.40000000      90.00000000     360.00000000      46.49700163       1.55438551
      24.50000000      90.00000000     360.00000000      46.49704653       1.55438701
      24.60000000      90.00000000     360.00000000      46.49709143       1.55438851
      24.70000000      90.00000000     360.00000000      46.49713634       1.55439001
      24.80000000      90.00000000     360.00000000      46.49718126       1.55439151
      24.90000000      90.00000000     360.00000000      46.49722618       1.55439301
      25.00000000      90.00000000     360.00000000      46.49727110       1.55439451
      25.10000000      90.00000000     360.00000000      46.49731604       1.55439602
      25.20000000      90.00000000     360.00000000      46.49736097       1.55439752
      25.30000000      90.00000000     360.00000000      46.49740592       1.55439902
      25.40000000      90.00000000     360.00000000      46.49745087       1.55440052
      25.50000000      90.00000000     360.00000000      46.49749582       1.55440203
      25.60000000      90.00000000     360.00000000      46.49754078       1.55440353
      25.70000000      90.00000000     360.00000000      46.49758575       1.55440503
      25.80000000      90.00000000     360.00000000      46.49763072       1.55440654
      25.90000000      90.00000000     360.00000000      46.49767570       1.55440804
      26.00000000      90.00000000     360.00000000      46.49772068       1.55440954
      26.10000000      90.00000000     360.00000000      46.49776567       1.55441105
      26.20000000      90.00000000     360.00000000      46.49781066       1.55441255
      26.30000000      90.00000000     360.00000000      46.49785566       1.55441406
      26.40000000      90.00000000     360.00000000      46.49790066       1.55441556
      26.50000000      90.00000000     360.00000000      46.49794568       1.55441706
      26.60000000      90.00000000     360.00000000      46.49799069       1.55441857
      26.70000000      90.00000000     360.00000000      46.49803571       1.55442007
      26.80000000      90.00000000     360.00000000      46.49808074       1.55442158
      26.90000000      90.00000000     360.00000000      46.49812577       1.55442309
      27.00000000      90.00000000     360.00000000      46.49817081       1.55442459
      27.10000000      90.00000000     360.00000000      46.49821586       1.55442610
      27.20000000      90.00000000     360.00000000      46.49826091       1.55442760
      27.30000000      90.00000000     360.00000000      46.49830596       1.55442911
      27.40000000      90.00000000     360.00000000      46.49835103       1.55443062
      27.50000000      90.00000000     360.00000000      46.49839609       1.55443212
      27.60000000      90.00000000     360.00000000      46.49844116       1.55443363
      27.70000000      90.00000000     360.00000000      46.49848624       1.55443514
      27.80000000      90.00000000     360.00000000      46.49853133       1.55443664
      27.90000000      90.00000000     360.00000000      46.49857642       1.55443815
      28.00000000      90.00000000     360.00000000      46.49862151       1.55443966
      28.10000000      90.00000000     360.00000000      46.49866661       1.55444117
      28.20000000      90.00000000     360.00000000      46.49871172       1.55444267
      28.30000000      90.00000000     360.00000000      46.49875683       1.55444418
      28.40000000      90.00000000     360.00000000      46.49880195       1.55444569
      28.50000000      90.00000000     360.00000000      46.49884707       1.55444720
      28.60000000      90.00000000     360.00000000      46.49889220       1.55444871
      28.70000000      90.00000000     360.00000000      46.49893734       1.55445022
      28.80000000      90.00000000     360.00000000      46.49898248       1.55445172
      28.90000000      90.00000000     360.00000000      46.49902762       1.55445323
      29.00000000      90.00000000     360.00000000      46.49907278       1.55445474
      29.10000000      90.00000000     360.00000000      46.49911793       1.55445625
      29.20000000      90.00000000     360.00000000      46.49916310       1.55445776
      29.30000000      90.00000000     360.00000000      46.49920826       1.55445927
      29.40000000      90.00000000     360.00000000      46.49925344       1.55446078
      29.50000000      90.00000000     360.00000000      46.49929862       1.55446229
      29.60000000      90.00000000     360.00000000      46.49934380       1.55446380
      29.70000000      90.00000000     360.00000000      46.49938900       1.55446531
      29.80000000      90.00000000     360.00000000      46.49943419       1.55446683
      29.90000000      90.00000000     360.00000000      46.49947940       1.55446834
      30.00000000      90.00000000     360.00000000      46.49952460       1.55446985
      30.10000000      90.00000000     360.00000000      46.49956982       1.55447136
      30.20000000      90.00000000     360.00000000      46.49961504       1.55447287
      30.30000000      90.00000000     360.00000000      46.49966026       1.55447438
      30.40000000      90.00000000     360.00000000      46.49970549       1.55447589
      30.50000000      90.00000000     360.00000000      46.49975073       1.55447741
      30.60000000      90.00000000     360.00000000      46.49979597       1.55447892
      30.70000000      90.00000000     360.00000000      46.49984122       1.55448043
      30.80000000      90.00000000     360.00000000      46.49988647       1.55448194
      30.90000000      90.00000000     360.00000000      46.49993173       1.55448346
      31.00000000      90.00000000     360.00000000      46.49997700       1.55448497
      31.10000000      90.00000000     360.00000000      46.50002227       1.55448648
      31.20000000      90.00000000     360.00000000      46.50006755       1.55448800
      31.30000000      90.00000000     360.00000000      46.50011283       1.55448951
      31.40000000      90.00000000     360.00000000      46.50015812       1.55449103
      31.50000000      90.00000000     360.00000000      46.50020341       1.55449254
      31.60000000      90.00000000     360.00000000      46.50024871       1.55449405
      31.70000000      90.00000000     360.00000000      46.50029401       1.55449557
      31.80000000      90.00000000     360.00000000      46.50033932       1.55449708
      31.90000000      90.00000000     360.00000000      46.50038464       1.55449860
      32.00000000      90.00000000     360.00000000      46.50042996       1.55450011
      32.10000000      90.00000000     360.00000000      46.50047529       1.55450163
      32.20000000      90.00000000     360.00000000      46.50052062       1.55450314
      32.30000000      90.00000000     360.00000000      46.50056596       1.55450466
      32.40000000      90.00000000     360.00000000      46.50061130       1.55450618
      32.50000000      90.00000000     360.00000000      46.50065665       1.55450769
      32.60000000      90.00000000     360.00000000      46.50070201       1.55450921
      32.70000000      90.00000000     360.00000000      46.50074737       1.55451072
      32.80000000      90.00000000     360.00000000      46.50079274       1.55451224
      32.90000000      90.00000000     360.00000000      46.50083811       1.55451376
      33.00000000      90.00000000     360.00000000      46.50088349       1.55451527
      33.10000000      90.00000000     360.00000000      46.50092887       1.55451679
      33.20000000      90.00000000     360.00000000      46.50097426       1.55451831
      33.30000000      90.00000000     360.00000000      46.50101966       1.55451983
      33.40000000      90.00000000     360.00000000      46.50106506       1.55452134
      33.50000000      90.00000000     360.00000000      46.50111047       1.55452286
      33.60000000      90.00000000     360.00000000      46.50115588       1.55452438
      33.70000000      90.00000000     360.00000000      46.50120130       1.55452590
      33.80000000      90.00000000     360.00000000      46.50124672       1.55452742
      33.90000000      90.00000000     360.00000000      46.50129215       1.55452894
      34.00000000      90.00000000     360.00000000      46.50133759       1.55453046
      34.10000000      90.00000000     360.00000000      46.50138303       1.55453197
      34.20000000      90.00000000     360.00000000      46.50142848       1.55453349
      34.30000000      90.00000000     360.00000000      46.50147393       1.55453501
      34.40000000      90.00000000     360.00000000      46.50151939       1.55453653
      34.50000000      90.00000000     360.00000000      46.50156485       1.55453805
      34.60000000      90.00000000     360.00000000      46.50161032       1.55453957
      34.70000000      90.00000000     360.00000000      46.50165580       1.55454109
      34.80000000      90.00000000     360.00000000      46.50170128       1.55454261
      34.90000000      90.00000000     360.00000000      46.50174677       1.55454413
      35.00000000      90.00000000     360.00000000      46.50179226       1.55454565
      35.10000000      90.00000000     360.00000000      46.50183776       1.55454718
      35.20000000      90.00000000     360.00000000      46.50188326       1.55454870
      35.30000000      90.00000000     360.00000000      46.50192877       1.55455022
      35.40000000      90.00000000     360.00000000      46.50197429       1.55455174
      35.50000000      90.00000000     360.00000000      46.50201981       1.55455326
      35.60000000      90.00000000     360.00000000      46.50206533       1.55455478
      35.70000000      90.00000000     360.00000000      46.50211087       1.55455631
      35.80000000      90.00000000     360.00000000      46.50215641       1.55455783
      35.90000000      90.00000000     360.00000000      46.50220195       1.55455935
      36.00000000      90.00000000     360.00000000      46.50224750       1.55456087
      36.10000000      90.00000000     360.00000000      46.50229306       1.55456240
      36.20000000      90.00000000     360.00000000      46.50233862       1.55456392
      36.30000000      90.00000000     360.00000000      46.50238418       1.55456544
      36.40000000      90.00000000     360.00000000      46.50242976       1.55456697
      36.50000000      90.00000000     360.00000000      46.50247533       1.55456849
      36.60000000      90.00000000     360.00000000      46.50252092       1.55457001
      36.70000000      90.00000000     360.00000000      46.50256651       1.55457154
      36.80000000      90.00000000     360.00000000      46.50261210       1.55457306
      36.90000000      90.00000000     360.00000000      46.50265771       1.55457459
      37.00000000      90.00000000     360.00000000      46.50270331       1.55457611
      37.10000000      90.00000000     360.00000000      46.50274892       1.55457764
      37.20000000      90.00000000     360.00000000      46.50279454       1.55457916
      37.30000000      90.00000000     360.00000000      46.50284017       1.55458069
      37.40000000      90.00000000     360.00000000      46.50288580       1.55458221
      37.50000000      90.00000000     360.00000000      46.50293143       1.55458374
      37.60000000      90.00000000     360.00000000      46.50297707       1.55458526
      37.70000000      90.00000000     360.00000000      46.50302272       1.55458679
      37.80000000      90.00000000     360.00000000      46.50306837       1.55458832
      37.90000000      90.00000000     360.00000000      46.50311403       1.55458984
      38.00000000      90.00000000     360.00000000      46.50315970       1.55459137
      38.10000000      90.00000000     360.00000000      46.50320537       1.55459289
      38.20000000      90.00000000     360.00000000      46.50325104       1.55459442
      38.30000000      90.00000000     360.00000000      46.50329673       1.55459595
      38.40000000      90.00000000     360.00000000      46.50334241       1.55459748
      38.50000000      90.00000000     360.00000000      46.50338811       1.55459900
      38.60000000      90.00000000     360.00000000      46.50343380       1.55460053
      38.70000000      90.00000000     360.00000000      46.50347951       1.55460206
      38.80000000      90.00000000     360.00000000      46.50352522       1.55460359
      38.90000000      90.00000000     360.00000000      46.50357094       1.55460512
      39.00000000      90.00000000     360.00000000      46.50361666       1.55460664
      39.10000000      90.00000000     360.00000000      46.50366238       1.55460817
      39.20000000      90.00000000     360.00000000      46.50370812       1.55460970
      39.30000000      90.00000000     360.00000000      46.50375386       1.55461123
      39.40000000      90.00000000     360.00000000      46.50379960       1.55461276
      39.50000000      90.00000000     360.00000000      46.50384535       1.55461429
      39.60000000      90.00000000     360.00000000      46.50389111       1.55461582
      39.70000000      90.00000000     360.00000000      46.50393687       1.55461735
      39.80000000      90.00000000     360.00000000      46.50398264       1.55461888
      39.90000000      90.00000000     360.00000000      46.50402841       1.55462041
      40.00000000      90.00000000     360.00000000      46.50407419       1.55462194
