 # applied field (T), theta (degree), phi (degree), abs for RE 3-4
     0.00000    90.00000   219.60987     3.66942    90.00000   230.39013     3.66942
     0.10000    90.00000   214.13773     3.86738    90.00000   224.31063     3.63230
     0.20000    90.00000   209.54708     4.03776    90.00000   218.90210     3.60037
     0.30000    90.00000   205.00683     4.20285    90.00000   213.31002     3.56961
     0.40000    90.00000   199.73266     4.37994    90.00000   206.56342     3.53689
     0.50000    90.00000   194.45143     4.52934    90.00000   199.60202     3.50952
     0.60000    90.00000   185.34142     4.69053    90.00000   187.29552     3.48013
     0.70000    90.00000   180.00000     4.71696    90.00000   180.00000     3.47529
     0.80000    90.00000   180.00000     4.71682    90.00000   180.00000     3.47528
     0.90000    90.00000   180.00000     4.71669    90.00000   180.00000     3.47528
     1.00000    90.00000   180.00000     4.71655    90.00000   180.00000     3.47527
     1.10000    90.00000   180.00000     4.71642    90.00000   180.00000     3.47526
     1.20000    90.00000   180.00000     4.71628    90.00000   180.00000     3.47525
     1.30000    90.00000   180.00000     4.71614    90.00000   180.00000     3.47524
     1.40000    90.00000   180.00000     4.71601    90.00000   180.00000     3.47524
     1.50000    90.00000   180.00000     4.71587    90.00000   180.00000     3.47523
     1.60000    90.00000   180.00000     4.71574    90.00000   180.00000     3.47522
     1.70000    90.00000   180.00000     4.71560    90.00000   180.00000     3.47521
     1.80000    90.00000   180.00000     4.71546    90.00000   180.00000     3.47520
     1.90000    90.00000   180.00000     4.71533    90.00000   180.00000     3.47520
     2.00000    90.00000   180.00000     4.71519    90.00000   180.00000     3.47519
     2.10000    90.00000   180.00000     4.71506    90.00000   180.00000     3.47518
     2.20000    90.00000   180.00000     4.71492    90.00000   180.00000     3.47517
     2.30000    90.00000   180.00000     4.71478    90.00000   180.00000     3.47516
     2.40000    90.00000   180.00000     4.71465    90.00000   180.00000     3.47516
     2.50000    90.00000   180.00000     4.71451    90.00000   180.00000     3.47515
     2.60000    90.00000   180.00000     4.71438    90.00000   180.00000     3.47514
     2.70000    90.00000   180.00000     4.71424    90.00000   180.00000     3.47513
     2.80000    90.00000   180.00000     4.71410    90.00000   180.00000     3.47512
     2.90000    90.00000   180.00000     4.71397    90.00000   180.00000     3.47512
     3.00000    90.00000   180.00000     4.71383    90.00000   180.00000     3.47511
     3.10000    90.00000   180.00000     4.71369    90.00000   180.00000     3.47510
     3.20000    90.00000   180.00000     4.71356    90.00000   180.00000     3.47509
     3.30000    90.00000   180.00000     4.71342    90.00000   180.00000     3.47508
     3.40000    90.00000   180.00000     4.71329    90.00000   180.00000     3.47508
     3.50000    90.00000   180.00000     4.71315    90.00000   180.00000     3.47507
     3.60000    90.00000   180.00000     4.71301    90.00000   180.00000     3.47506
     3.70000    90.00000   180.00000     4.71288    90.00000   180.00000     3.47505
     3.80000    90.00000   180.00000     4.71274    90.00000   180.00000     3.47504
     3.90000    90.00000   180.00000     4.71261    90.00000   180.00000     3.47503
     4.00000    90.00000   180.00000     4.71247    90.00000   180.00000     3.47503
     4.10000    90.00000   180.00000     4.71233    90.00000   180.00000     3.47502
     4.20000    90.00000   180.00000     4.71220    90.00000   180.00000     3.47501
     4.30000    90.00000   180.00000     4.71206    90.00000   180.00000     3.47500
     4.40000    90.00000   180.00000     4.71193    90.00000   180.00000     3.47499
     4.50000    90.00000   180.00000     4.71179    90.00000   180.00000     3.47498
     4.60000    90.00000   180.00000     4.71165    90.00000   180.00000     3.47498
     4.70000    90.00000   180.00000     4.71152    90.00000   180.00000     3.47497
     4.80000    90.00000   180.00000     4.71138    90.00000   180.00000     3.47496
     4.90000    90.00000   180.00000     4.71125    90.00000   180.00000     3.47495
     5.00000    90.00000   180.00000     4.71111    90.00000   180.00000     3.47494
     5.10000    90.00000   180.00000     4.71097    90.00000   180.00000     3.47493
     5.20000    90.00000   180.00000     4.71084    90.00000   180.00000     3.47492
     5.30000    90.00000   180.00000     4.71070    90.00000   180.00000     3.47492
     5.40000    90.00000   180.00000     4.71057    90.00000   180.00000     3.47491
     5.50000    90.00000   180.00000     4.71043    90.00000   180.00000     3.47490
     5.60000    90.00000   180.00000     4.71029    90.00000   180.00000     3.47489
     5.70000    90.00000   180.00000     4.71016    90.00000   180.00000     3.47488
     5.80000    90.00000   180.00000     4.71002    90.00000   180.00000     3.47487
     5.90000    90.00000   180.00000     4.70989    90.00000   180.00000     3.47486
     6.00000    90.00000   180.00000     4.70975    90.00000   180.00000     3.47485
     6.10000    90.00000   180.00000     4.70961    90.00000   180.00000     3.47485
     6.20000    90.00000   180.00000     4.70948    90.00000   180.00000     3.47484
     6.30000    90.00000   180.00000     4.70934    90.00000   180.00000     3.47483
     6.40000    90.00000   180.00000     4.70921    90.00000   180.00000     3.47482
     6.50000    90.00000   180.00000     4.70907    90.00000   180.00000     3.47481
     6.60000    90.00000   180.00000     4.70893    90.00000   180.00000     3.47480
     6.70000    90.00000   180.00000     4.70880    90.00000   180.00000     3.47479
     6.80000    90.00000   180.00000     4.70866    90.00000   180.00000     3.47478
     6.90000    90.00000   180.00000     4.70853    90.00000   180.00000     3.47478
     7.00000    90.00000   180.00000     4.70839    90.00000   180.00000     3.47477
     7.10000    90.00000   180.00000     4.70825    90.00000   180.00000     3.47476
     7.20000    90.00000   180.00000     4.70812    90.00000   180.00000     3.47475
     7.30000    90.00000   180.00000     4.70798    90.00000   180.00000     3.47474
     7.40000    90.00000   180.00000     4.70785    90.00000   180.00000     3.47473
     7.50000    90.00000   180.00000     4.70771    90.00000   180.00000     3.47472
     7.60000    90.00000   180.00000     4.70757    90.00000   180.00000     3.47471
     7.70000    90.00000   180.00000     4.70744    90.00000   180.00000     3.47470
     7.80000    90.00000   180.00000     4.70730    90.00000   180.00000     3.47469
     7.90000    90.00000   180.00000     4.70717    90.00000   180.00000     3.47469
     8.00000    90.00000   180.00000     4.70703    90.00000   180.00000     3.47468
     8.10000    90.00000   180.00000     4.70689    90.00000   180.00000     3.47467
     8.20000    90.00000   180.00000     4.70676    90.00000   180.00000     3.47466
     8.30000    90.00000   180.00000     4.70662    90.00000   180.00000     3.47465
     8.40000    90.00000   180.00000     4.70649    90.00000   180.00000     3.47464
     8.50000    90.00000   180.00000     4.70635    90.00000   180.00000     3.47463
     8.60000    90.00000   180.00000     4.70621    90.00000   180.00000     3.47462
     8.70000    90.00000   180.00000     4.70608    90.00000   180.00000     3.47461
     8.80000    90.00000   180.00000     4.70594    90.00000   180.00000     3.47460
     8.90000    90.00000   180.00000     4.70581    90.00000   180.00000     3.47459
     9.00000    90.00000   180.00000     4.70567    90.00000   180.00000     3.47458
     9.10000    90.00000   180.00000     4.70553    90.00000   180.00000     3.47457
     9.20000    90.00000   180.00000     4.70540    90.00000   180.00000     3.47457
     9.30000    90.00000   180.00000     4.70526    90.00000   180.00000     3.47456
     9.40000    90.00000   180.00000     4.70513    90.00000   180.00000     3.47455
     9.50000    90.00000   180.00000     4.70499    90.00000   180.00000     3.47454
     9.60000    90.00000   180.00000     4.70485    90.00000   180.00000     3.47453
     9.70000    90.00000   180.00000     4.70472    90.00000   180.00000     3.47452
     9.80000    90.00000   180.00000     4.70458    90.00000   180.00000     3.47451
     9.90000    90.00000   180.00000     4.70445    90.00000   180.00000     3.47450
    10.00000    90.00000   180.00000     4.70431    90.00000   180.00000     3.47449
    10.10000    90.00000   180.00000     4.70417    90.00000   180.00000     3.47448
    10.20000    90.00000   180.00000     4.70404    90.00000   180.00000     3.47447
    10.30000    90.00000   180.00000     4.70390    90.00000   180.00000     3.47446
    10.40000    90.00000   180.00000     4.70377    90.00000   180.00000     3.47445
    10.50000    90.00000   180.00000     4.70363    90.00000   180.00000     3.47444
    10.60000    90.00000   180.00000     4.70349    90.00000   180.00000     3.47443
    10.70000    90.00000   180.00000     4.70336    90.00000   180.00000     3.47442
    10.80000    90.00000   180.00000     4.70322    90.00000   180.00000     3.47441
    10.90000    90.00000   180.00000     4.70309    90.00000   180.00000     3.47440
    11.00000    90.00000   180.00000     4.70295    90.00000   180.00000     3.47439
    11.10000    90.00000   180.00000     4.70281    90.00000   180.00000     3.47438
    11.20000    90.00000   180.00000     4.70268    90.00000   180.00000     3.47437
    11.30000    90.00000   180.00000     4.70254    90.00000   180.00000     3.47436
    11.40000    90.00000   180.00000     4.70241    90.00000   180.00000     3.47435
    11.50000    90.00000   180.00000     4.70227    90.00000   180.00000     3.47434
    11.60000    90.00000   180.00000     4.70213    90.00000   180.00000     3.47434
    11.70000    90.00000   180.00000     4.70200    90.00000   180.00000     3.47433
    11.80000    90.00000   180.00000     4.70186    90.00000   180.00000     3.47432
    11.90000    90.00000   180.00000     4.70173    90.00000   180.00000     3.47431
    12.00000    90.00000   180.00000     4.70159    90.00000   180.00000     3.47430
    12.10000    90.00000   180.00000     4.70145    90.00000   180.00000     3.47429
    12.20000    90.00000   180.00000     4.70132    90.00000   180.00000     3.47428
    12.30000    90.00000   180.00000     4.70118    90.00000   180.00000     3.47427
    12.40000    90.00000   180.00000     4.70105    90.00000   180.00000     3.47426
    12.50000    90.00000   180.00000     4.70091    90.00000   180.00000     3.47425
    12.60000    90.00000   180.00000     4.70077    90.00000   180.00000     3.47424
    12.70000    90.00000   180.00000     4.70064    90.00000   180.00000     3.47423
    12.80000    90.00000   180.00000     4.70050    90.00000   180.00000     3.47422
    12.90000    90.00000   180.00000     4.70037    90.00000   180.00000     3.47421
    13.00000    90.00000   180.00000     4.70023    90.00000   180.00000     3.47420
    13.10000    90.00000   180.00000     4.70009    90.00000   180.00000     3.47419
    13.20000    90.00000   180.00000     4.69996    90.00000   180.00000     3.47418
    13.30000    90.00000   180.00000     4.69982    90.00000   180.00000     3.47417
    13.40000    90.00000   180.00000     4.69969    90.00000   180.00000     3.47416
    13.50000    90.00000   180.00000     4.69955    90.00000   180.00000     3.47415
    13.60000    90.00000   180.00000     4.69941    90.00000   180.00000     3.47414
    13.70000    90.00000   180.00000     4.69928    90.00000   180.00000     3.47412
    13.80000    90.00000   180.00000     4.69914    90.00000   180.00000     3.47411
    13.90000    90.00000   180.00000     4.69901    90.00000   180.00000     3.47410
    14.00000    90.00000   180.00000     4.69887    90.00000   180.00000     3.47409
    14.10000    90.00000   180.00000     4.69873    90.00000   180.00000     3.47408
    14.20000    90.00000   180.00000     4.69860    90.00000   180.00000     3.47407
    14.30000    90.00000   180.00000     4.69846    90.00000   180.00000     3.47406
    14.40000    90.00000   180.00000     4.69833    90.00000   180.00000     3.47405
    14.50000    90.00000   180.00000     4.69819    90.00000   180.00000     3.47404
    14.60000    90.00000   180.00000     4.69805    90.00000   180.00000     3.47403
    14.70000    90.00000   180.00000     4.69792    90.00000   180.00000     3.47402
    14.80000    90.00000   180.00000     4.69778    90.00000   180.00000     3.47401
    14.90000    90.00000   180.00000     4.69765    90.00000   180.00000     3.47400
    15.00000    90.00000   180.00000     4.69751    90.00000   180.00000     3.47399
    15.10000    90.00000   180.00000     4.69737    90.00000   180.00000     3.47398
    15.20000    90.00000   180.00000     4.69724    90.00000   180.00000     3.47397
    15.30000    90.00000   180.00000     4.69710    90.00000   180.00000     3.47396
    15.40000    90.00000   180.00000     4.69697    90.00000   180.00000     3.47395
    15.50000    90.00000   180.00000     4.69683    90.00000   180.00000     3.47394
    15.60000    90.00000   180.00000     4.69669    90.00000   180.00000     3.47393
    15.70000    90.00000   180.00000     4.69656    90.00000   180.00000     3.47392
    15.80000    90.00000   180.00000     4.69642    90.00000   180.00000     3.47391
    15.90000    90.00000   180.00000     4.69629    90.00000   180.00000     3.47390
    16.00000    90.00000   180.00000     4.69615    90.00000   180.00000     3.47388
    16.10000    90.00000   180.00000     4.69601    90.00000   180.00000     3.47387
    16.20000    90.00000   180.00000     4.69588    90.00000   180.00000     3.47386
    16.30000    90.00000   180.00000     4.69574    90.00000   180.00000     3.47385
    16.40000    90.00000   180.00000     4.69561    90.00000   180.00000     3.47384
    16.50000    90.00000   180.00000     4.69547    90.00000   180.00000     3.47383
    16.60000    90.00000   180.00000     4.69534    90.00000   180.00000     3.47382
    16.70000    90.00000   180.00000     4.69520    90.00000   180.00000     3.47381
    16.80000    90.00000   180.00000     4.69506    90.00000   180.00000     3.47380
    16.90000    90.00000   180.00000     4.69493    90.00000   180.00000     3.47379
    17.00000    90.00000   180.00000     4.69479    90.00000   180.00000     3.47378
    17.10000    90.00000   180.00000     4.69466    90.00000   180.00000     3.47377
    17.20000    90.00000   180.00000     4.69452    90.00000   180.00000     3.47376
    17.30000    90.00000   180.00000     4.69438    90.00000   180.00000     3.47374
    17.40000    90.00000   180.00000     4.69425    90.00000   180.00000     3.47373
    17.50000    90.00000   180.00000     4.69411    90.00000   180.00000     3.47372
    17.60000    90.00000   180.00000     4.69398    90.00000   180.00000     3.47371
    17.70000    90.00000   180.00000     4.69384    90.00000   180.00000     3.47370
    17.80000    90.00000   180.00000     4.69370    90.00000   180.00000     3.47369
    17.90000    90.00000   180.00000     4.69357    90.00000   180.00000     3.47368
    18.00000    90.00000   180.00000     4.69343    90.00000   180.00000     3.47367
    18.10000    90.00000   180.00000     4.69330    90.00000   180.00000     3.47366
    18.20000    90.00000   180.00000     4.69316    90.00000   180.00000     3.47365
    18.30000    90.00000   180.00000     4.69302    90.00000   180.00000     3.47363
    18.40000    90.00000   180.00000     4.69289    90.00000   180.00000     3.47362
    18.50000    90.00000   180.00000     4.69275    90.00000   180.00000     3.47361
    18.60000    90.00000   180.00000     4.69262    90.00000   180.00000     3.47360
    18.70000    90.00000   180.00000     4.69248    90.00000   180.00000     3.47359
    18.80000    90.00000   180.00000     4.69234    90.00000   180.00000     3.47358
    18.90000    90.00000   180.00000     4.69221    90.00000   180.00000     3.47357
    19.00000    90.00000   180.00000     4.69207    90.00000   180.00000     3.47356
    19.10000    90.00000   180.00000     4.69194    90.00000   180.00000     3.47355
    19.20000    90.00000   180.00000     4.69180    90.00000   180.00000     3.47353
    19.30000    90.00000   180.00000     4.69166    90.00000   180.00000     3.47352
    19.40000    90.00000   180.00000     4.69153    90.00000   180.00000     3.47351
    19.50000    90.00000   180.00000     4.69139    90.00000   180.00000     3.47350
    19.60000    90.00000   180.00000     4.69126    90.00000   180.00000     3.47349
    19.70000    90.00000   180.00000     4.69112    90.00000   180.00000     3.47348
    19.80000    90.00000   180.00000     4.69098    90.00000   180.00000     3.47347
    19.90000    90.00000   180.00000     4.69085    90.00000   180.00000     3.47345
    20.00000    90.00000   180.00000     4.69071    90.00000   180.00000     3.47344
    20.10000    90.00000   180.00000     4.69058    90.00000   180.00000     3.47343
    20.20000    90.00000   180.00000     4.69044    90.00000   180.00000     3.47342
    20.30000    90.00000   180.00000     4.69030    90.00000   180.00000     3.47341
    20.40000    90.00000   180.00000     4.69017    90.00000   180.00000     3.47340
    20.50000    90.00000   180.00000     4.69003    90.00000   180.00000     3.47339
    20.60000    90.00000   180.00000     4.68990    90.00000   180.00000     3.47337
    20.70000    90.00000   180.00000     4.68976    90.00000   180.00000     3.47336
    20.80000    90.00000   180.00000     4.68962    90.00000   180.00000     3.47335
    20.90000    90.00000   180.00000     4.68949    90.00000   180.00000     3.47334
    21.00000    90.00000   180.00000     4.68935    90.00000   180.00000     3.47333
    21.10000    90.00000   180.00000     4.68922    90.00000   180.00000     3.47332
    21.20000    90.00000   180.00000     4.68908    90.00000   180.00000     3.47330
    21.30000    90.00000   180.00000     4.68894    90.00000   180.00000     3.47329
    21.40000    90.00000   180.00000     4.68881    90.00000   180.00000     3.47328
    21.50000    90.00000   180.00000     4.68867    90.00000   180.00000     3.47327
    21.60000    90.00000   180.00000     4.68854    90.00000   180.00000     3.47326
    21.70000    90.00000   180.00000     4.68840    90.00000   180.00000     3.47325
    21.80000    90.00000   180.00000     4.68826    90.00000   180.00000     3.47323
    21.90000    90.00000   180.00000     4.68813    90.00000   180.00000     3.47322
    22.00000    90.00000   180.00000     4.68799    90.00000   180.00000     3.47321
    22.10000    90.00000   180.00000     4.68786    90.00000   180.00000     3.47320
    22.20000    90.00000   180.00000     4.68772    90.00000   180.00000     3.47319
    22.30000    90.00000   180.00000     4.68758    90.00000   180.00000     3.47318
    22.40000    90.00000   180.00000     4.68745    90.00000   180.00000     3.47316
    22.50000    90.00000   180.00000     4.68731    90.00000   180.00000     3.47315
    22.60000    90.00000   180.00000     4.68718    90.00000   180.00000     3.47314
    22.70000    90.00000   180.00000     4.68704    90.00000   180.00000     3.47313
    22.80000    90.00000   180.00000     4.68690    90.00000   180.00000     3.47312
    22.90000    90.00000   180.00000     4.68677    90.00000   180.00000     3.47310
    23.00000    90.00000   180.00000     4.68663    90.00000   180.00000     3.47309
    23.10000    90.00000   180.00000     4.68650    90.00000   180.00000     3.47308
    23.20000    90.00000   180.00000     4.68636    90.00000   180.00000     3.47307
    23.30000    90.00000   180.00000     4.68622    90.00000   180.00000     3.47306
    23.40000    90.00000   180.00000     4.68609    90.00000   180.00000     3.47304
    23.50000    90.00000   180.00000     4.68595    90.00000   180.00000     3.47303
    23.60000    90.00000   180.00000     4.68582    90.00000   180.00000     3.47302
    23.70000    90.00000   180.00000     4.68568    90.00000   180.00000     3.47301
    23.80000    90.00000   180.00000     4.68554    90.00000   180.00000     3.47300
    23.90000    90.00000   180.00000     4.68541    90.00000   180.00000     3.47298
    24.00000    90.00000   180.00000     4.68527    90.00000   180.00000     3.47297
    24.10000    90.00000   180.00000     4.68514    90.00000   180.00000     3.47296
    24.20000    90.00000   180.00000     4.68500    90.00000   180.00000     3.47295
    24.30000    90.00000   180.00000     4.68486    90.00000   180.00000     3.47293
    24.40000    90.00000   180.00000     4.68473    90.00000   180.00000     3.47292
    24.50000    90.00000   180.00000     4.68459    90.00000   180.00000     3.47291
    24.60000    90.00000   180.00000     4.68446    90.00000   180.00000     3.47290
    24.70000    90.00000   180.00000     4.68432    90.00000   180.00000     3.47288
    24.80000    90.00000   180.00000     4.68418    90.00000   180.00000     3.47287
    24.90000    90.00000   180.00000     4.68405    90.00000   180.00000     3.47286
    25.00000    90.00000   180.00000     4.68391    90.00000   180.00000     3.47285
    25.10000    90.00000   180.00000     4.68378    90.00000   180.00000     3.47284
    25.20000    90.00000   180.00000     4.68364    90.00000   180.00000     3.47282
    25.30000    90.00000   180.00000     4.68350    90.00000   180.00000     3.47281
    25.40000    90.00000   180.00000     4.68337    90.00000   180.00000     3.47280
    25.50000    90.00000   180.00000     4.68323    90.00000   180.00000     3.47279
    25.60000    90.00000   180.00000     4.68310    90.00000   180.00000     3.47277
    25.70000    90.00000   180.00000     4.68296    90.00000   180.00000     3.47276
    25.80000    90.00000   180.00000     4.68282    90.00000   180.00000     3.47275
    25.90000    90.00000   180.00000     4.68269    90.00000   180.00000     3.47274
    26.00000    90.00000   180.00000     4.68255    90.00000   180.00000     3.47272
    26.10000    90.00000   180.00000     4.68242    90.00000   180.00000     3.47271
    26.20000    90.00000   180.00000     4.68228    90.00000   180.00000     3.47270
    26.30000    90.00000   180.00000     4.68214    90.00000   180.00000     3.47269
    26.40000    90.00000   180.00000     4.68201    90.00000   180.00000     3.47267
    26.50000    90.00000   180.00000     4.68187    90.00000   180.00000     3.47266
    26.60000    90.00000   180.00000     4.68174    90.00000   180.00000     3.47265
    26.70000    90.00000   180.00000     4.68160    90.00000   180.00000     3.47263
    26.80000    90.00000   180.00000     4.68146    90.00000   180.00000     3.47262
    26.90000    90.00000   180.00000     4.68133    90.00000   180.00000     3.47261
    27.00000    90.00000   180.00000     4.68119    90.00000   180.00000     3.47260
    27.10000    90.00000   180.00000     4.68106    90.00000   180.00000     3.47258
    27.20000    90.00000   180.00000     4.68092    90.00000   180.00000     3.47257
    27.30000    90.00000   180.00000     4.68078    90.00000   180.00000     3.47256
    27.40000    90.00000   180.00000     4.68065    90.00000   180.00000     3.47254
    27.50000    90.00000   180.00000     4.68051    90.00000   180.00000     3.47253
    27.60000    90.00000   180.00000     4.68038    90.00000   180.00000     3.47252
    27.70000    90.00000   180.00000     4.68024    90.00000   180.00000     3.47251
    27.80000    90.00000   180.00000     4.68010    90.00000   180.00000     3.47249
    27.90000    90.00000   180.00000     4.67997    90.00000   180.00000     3.47248
    28.00000    90.00000   180.00000     4.67983    90.00000   180.00000     3.47247
    28.10000    90.00000   180.00000     4.67970    90.00000   180.00000     3.47245
    28.20000    90.00000   180.00000     4.67956    90.00000   180.00000     3.47244
    28.30000    90.00000   180.00000     4.67942    90.00000   180.00000     3.47243
    28.40000    90.00000   180.00000     4.67929    90.00000   180.00000     3.47242
    28.50000    90.00000   180.00000     4.67915    90.00000   180.00000     3.47240
    28.60000    90.00000   180.00000     4.67902    90.00000   180.00000     3.47239
    28.70000    90.00000   180.00000     4.67888    90.00000   180.00000     3.47238
    28.80000    90.00000   180.00000     4.67874    90.00000   180.00000     3.47236
    28.90000    90.00000   180.00000     4.67861    90.00000   180.00000     3.47235
    29.00000    90.00000   180.00000     4.67847    90.00000   180.00000     3.47234
    29.10000    90.00000   180.00000     4.67834    90.00000   180.00000     3.47232
    29.20000    90.00000   180.00000     4.67820    90.00000   180.00000     3.47231
    29.30000    90.00000   180.00000     4.67806    90.00000   180.00000     3.47230
    29.40000    90.00000   180.00000     4.67793    90.00000   180.00000     3.47228
    29.50000    90.00000   180.00000     4.67779    90.00000   180.00000     3.47227
    29.60000    90.00000   180.00000     4.67766    90.00000   180.00000     3.47226
    29.70000    90.00000   180.00000     4.67752    90.00000   180.00000     3.47224
    29.80000    90.00000   180.00000     4.67738    90.00000   180.00000     3.47223
    29.90000    90.00000   180.00000     4.67725    90.00000   180.00000     3.47222
    30.00000    90.00000   180.00000     4.67711    90.00000   180.00000     3.47220
    30.10000    90.00000   180.00000     4.67698    90.00000   180.00000     3.47219
    30.20000    90.00000   180.00000     4.67684    90.00000   180.00000     3.47218
    30.30000    90.00000   180.00000     4.67670    90.00000   180.00000     3.47216
    30.40000    90.00000   180.00000     4.67657    90.00000   180.00000     3.47215
    30.50000    90.00000   180.00000     4.67643    90.00000   180.00000     3.47214
    30.60000    90.00000   180.00000     4.67630    90.00000   180.00000     3.47212
    30.70000    90.00000   180.00000     4.67616    90.00000   180.00000     3.47211
    30.80000    90.00000   180.00000     4.67602    90.00000   180.00000     3.47210
    30.90000    90.00000   180.00000     4.67589    90.00000   180.00000     3.47208
    31.00000    90.00000   180.00000     4.67575    90.00000   180.00000     3.47207
    31.10000    90.00000   180.00000     4.67562    90.00000   180.00000     3.47206
    31.20000    90.00000   180.00000     4.67548    90.00000   180.00000     3.47204
    31.30000    90.00000   180.00000     4.67534    90.00000   180.00000     3.47203
    31.40000    90.00000   180.00000     4.67521    90.00000   180.00000     3.47202
    31.50000    90.00000   180.00000     4.67507    90.00000   180.00000     3.47200
    31.60000    90.00000   180.00000     4.67493    90.00000   180.00000     3.47199
    31.70000    90.00000   180.00000     4.67480    90.00000   180.00000     3.47197
    31.80000    90.00000   180.00000     4.67466    90.00000   180.00000     3.47196
    31.90000    90.00000   180.00000     4.67453    90.00000   180.00000     3.47195
    32.00000    90.00000   180.00000     4.67439    90.00000   180.00000     3.47193
    32.10000    90.00000   180.00000     4.67425    90.00000   180.00000     3.47192
    32.20000    90.00000   180.00000     4.67412    90.00000   180.00000     3.47191
    32.30000    90.00000   180.00000     4.67398    90.00000   180.00000     3.47189
    32.40000    90.00000   180.00000     4.67385    90.00000   180.00000     3.47188
    32.50000    90.00000   180.00000     4.67371    90.00000   180.00000     3.47186
    32.60000    90.00000   180.00000     4.67357    90.00000   180.00000     3.47185
    32.70000    90.00000   180.00000     4.67344    90.00000   180.00000     3.47184
    32.80000    90.00000   180.00000     4.67330    90.00000   180.00000     3.47182
    32.90000    90.00000   180.00000     4.67317    90.00000   180.00000     3.47181
    33.00000    90.00000   180.00000     4.67303    90.00000   180.00000     3.47179
    33.10000    90.00000   180.00000     4.67289    90.00000   180.00000     3.47178
    33.20000    90.00000   180.00000     4.67276    90.00000   180.00000     3.47177
    33.30000    90.00000   180.00000     4.67262    90.00000   180.00000     3.47175
    33.40000    90.00000   180.00000     4.67249    90.00000   180.00000     3.47174
    33.50000    90.00000   180.00000     4.67235    90.00000   180.00000     3.47173
    33.60000    90.00000   180.00000     4.67221    90.00000   180.00000     3.47171
    33.70000    90.00000   180.00000     4.67208    90.00000   180.00000     3.47170
    33.80000    90.00000   180.00000     4.67194    90.00000   180.00000     3.47168
    33.90000    90.00000   180.00000     4.67180    90.00000   180.00000     3.47167
    34.00000    90.00000   180.00000     4.67167    90.00000   180.00000     3.47165
    34.10000    90.00000   180.00000     4.67153    90.00000   180.00000     3.47164
    34.20000    90.00000   180.00000     4.67140    90.00000   180.00000     3.47163
    34.30000    90.00000   180.00000     4.67126    90.00000   180.00000     3.47161
    34.40000    90.00000   180.00000     4.67112    90.00000   180.00000     3.47160
    34.50000    90.00000   180.00000     4.67099    90.00000   180.00000     3.47158
    34.60000    90.00000   180.00000     4.67085    90.00000   180.00000     3.47157
    34.70000    90.00000   180.00000     4.67072    90.00000   180.00000     3.47156
    34.80000    90.00000   180.00000     4.67058    90.00000   180.00000     3.47154
    34.90000    90.00000   180.00000     4.67044    90.00000   180.00000     3.47153
    35.00000    90.00000   180.00000     4.67031    90.00000   180.00000     3.47151
    35.10000    90.00000   180.00000     4.67017    90.00000   180.00000     3.47150
    35.20000    90.00000   180.00000     4.67003    90.00000   180.00000     3.47148
    35.30000    90.00000   180.00000     4.66990    90.00000   180.00000     3.47147
    35.40000    90.00000   180.00000     4.66976    90.00000   180.00000     3.47145
    35.50000    90.00000   180.00000     4.66963    90.00000   180.00000     3.47144
    35.60000    90.00000   180.00000     4.66949    90.00000   180.00000     3.47143
    35.70000    90.00000   180.00000     4.66935    90.00000   180.00000     3.47141
    35.80000    90.00000   180.00000     4.66922    90.00000   180.00000     3.47140
    35.90000    90.00000   180.00000     4.66908    90.00000   180.00000     3.47138
    36.00000    90.00000   180.00000     4.66895    90.00000   180.00000     3.47137
    36.10000    90.00000   180.00000     4.66881    90.00000   180.00000     3.47135
    36.20000    90.00000   180.00000     4.66867    90.00000   180.00000     3.47134
    36.30000    90.00000   180.00000     4.66854    90.00000   180.00000     3.47132
    36.40000    90.00000   180.00000     4.66840    90.00000   180.00000     3.47131
    36.50000    90.00000   180.00000     4.66826    90.00000   180.00000     3.47130
    36.60000    90.00000   180.00000     4.66813    90.00000   180.00000     3.47128
    36.70000    90.00000   180.00000     4.66799    90.00000   180.00000     3.47127
    36.80000    90.00000   180.00000     4.66786    90.00000   180.00000     3.47125
    36.90000    90.00000   180.00000     4.66772    90.00000   180.00000     3.47124
    37.00000    90.00000   180.00000     4.66758    90.00000   180.00000     3.47122
    37.10000    90.00000   180.00000     4.66745    90.00000   180.00000     3.47121
    37.20000    90.00000   180.00000     4.66731    90.00000   180.00000     3.47119
    37.30000    90.00000   180.00000     4.66717    90.00000   180.00000     3.47118
    37.40000    90.00000   180.00000     4.66704    90.00000   180.00000     3.47116
    37.50000    90.00000   180.00000     4.66690    90.00000   180.00000     3.47115
    37.60000    90.00000   180.00000     4.66677    90.00000   180.00000     3.47113
    37.70000    90.00000   180.00000     4.66663    90.00000   180.00000     3.47112
    37.80000    90.00000   180.00000     4.66649    90.00000   180.00000     3.47110
    37.90000    90.00000   180.00000     4.66636    90.00000   180.00000     3.47109
    38.00000    90.00000   180.00000     4.66622    90.00000   180.00000     3.47107
    38.10000    90.00000   180.00000     4.66608    90.00000   180.00000     3.47106
    38.20000    90.00000   180.00000     4.66595    90.00000   180.00000     3.47104
    38.30000    90.00000   180.00000     4.66581    90.00000   180.00000     3.47103
    38.40000    90.00000   180.00000     4.66568    90.00000   180.00000     3.47101
    38.50000    90.00000   180.00000     4.66554    90.00000   180.00000     3.47100
    38.60000    90.00000   180.00000     4.66540    90.00000   180.00000     3.47098
    38.70000    90.00000   180.00000     4.66527    90.00000   180.00000     3.47097
    38.80000    90.00000   180.00000     4.66513    90.00000   180.00000     3.47095
    38.90000    90.00000   180.00000     4.66499    90.00000   180.00000     3.47094
    39.00000    90.00000   180.00000     4.66486    90.00000   180.00000     3.47092
    39.10000    90.00000   180.00000     4.66472    90.00000   180.00000     3.47091
    39.20000    90.00000   180.00000     4.66459    90.00000   180.00000     3.47089
    39.30000    90.00000   180.00000     4.66445    90.00000   180.00000     3.47088
    39.40000    90.00000   180.00000     4.66431    90.00000   180.00000     3.47086
    39.50000    90.00000   180.00000     4.66418    90.00000   180.00000     3.47085
    39.60000    90.00000   180.00000     4.66404    90.00000   180.00000     3.47083
    39.70000    90.00000   180.00000     4.66390    90.00000   180.00000     3.47082
    39.80000    90.00000   180.00000     4.66377    90.00000   180.00000     3.47080
    39.90000    90.00000   180.00000     4.66363    90.00000   180.00000     3.47079
    40.00000    90.00000   180.00000     4.66350    90.00000   180.00000     3.47077
