 # applied field (T), theta (degree), phi (degree), abs
     0.00000    90.00000    44.57143    39.47398
     0.10000    89.59873    45.42857    39.47398
     0.20000    89.14013    45.42857    39.47398
     0.30000    88.73885    44.57143    39.47398
     0.40000    88.28025    44.57143    39.47398
     0.50000    87.87898    45.42857    39.47398
     0.60000    87.42038    45.42857    39.47398
     0.70000    87.01911    44.57143    39.47398
     0.80000    86.61783    45.42857    39.47398
     0.90000    86.15924    44.57143    39.47398
     1.00000    85.75796    45.42857    39.47398
     1.10000    85.29936    44.57143    39.47398
     1.20000    84.89809    44.57143    39.47398
     1.30000    84.43949    45.42857    39.47398
     1.40000    84.03822    44.57143    39.47398
     1.50000    83.63694    45.42857    39.47398
     1.60000    83.17834    45.00000    39.47398
     1.70000    82.77707    45.00000    39.47398
     1.80000    82.31847    45.00000    39.47398
     1.90000    81.91720    45.00000    39.47398
     2.00000    81.45860    45.00000    39.47398
     2.10000    81.05732    45.00000    39.47398
     2.20000    80.65605    45.00000    39.47398
     2.30000    80.19745    45.00000    39.47398
     2.40000    79.79618    45.00000    39.47398
     2.50000    79.33758    45.43689    39.47398
     2.60000    78.93631    44.56311    39.47398
     2.70000    78.47771    44.56311    39.47398
     2.80000    78.07643    44.56311    39.47398
     2.90000    77.67516    44.56311    39.47398
     3.00000    77.21656    45.43689    39.47398
     3.10000    76.81529    45.00000    39.47398
     3.20000    76.35669    45.00000    39.47398
     3.30000    75.95541    45.00000    39.47398
     3.40000    75.55414    45.00000    39.47398
     3.50000    75.09554    45.00000    39.47398
     3.60000    74.69427    45.00000    39.47398
     3.70000    74.23567    44.55446    39.47398
     3.80000    73.83439    45.44554    39.47398
     3.90000    73.43312    44.55446    39.47398
     4.00000    72.97452    45.44554    39.47398
     4.10000    72.57325    45.00000    39.47398
     4.20000    72.17197    45.00000    39.47398
     4.30000    71.71338    45.00000    39.47398
     4.40000    71.31210    45.00000    39.47398
     4.50000    70.85350    44.54545    39.47398
     4.60000    70.45223    44.54545    39.47398
     4.70000    70.05096    45.45455    39.47398
     4.80000    69.59236    45.45455    39.47398
     4.90000    69.19108    45.00000    39.47398
     5.00000    68.78981    45.00000    39.47398
     5.10000    68.33121    45.00000    39.47398
     5.20000    67.92994    45.00000    39.47398
     5.30000    67.47134    44.53608    39.47398
     5.40000    67.07006    44.53608    39.47398
     5.50000    66.66879    45.46392    39.47398
     5.60000    66.21019    45.00000    39.47398
     5.70000    65.80892    45.00000    39.47398
     5.80000    65.40764    45.00000    39.47398
     5.90000    64.94904    45.47368    39.47398
     6.00000    64.54777    44.52632    39.47398
     6.10000    64.14650    45.47368    39.47398
     6.20000    63.68790    45.00000    39.47398
     6.30000    63.28662    45.00000    39.47398
     6.40000    62.82803    45.00000    39.47398
     6.50000    62.42675    45.48387    39.47398
     6.60000    62.02548    45.48387    39.47398
     6.70000    61.56688    44.51613    39.47398
     6.80000    61.16561    45.00000    39.47398
     6.90000    60.76433    45.00000    39.47398
     7.00000    60.30573    44.50549    39.47398
     7.10000    59.90446    45.49451    39.47398
     7.20000    59.50318    44.50549    39.47398
     7.30000    59.04459    45.00000    39.47398
     7.40000    58.64331    45.00000    39.47398
     7.50000    58.18471    44.49438    39.47398
     7.60000    57.78344    45.50562    39.47398
     7.70000    57.38217    45.50562    39.47398
     7.80000    56.92357    45.00000    39.47398
     7.90000    56.52229    45.00000    39.47398
     8.00000    56.06369    45.51724    39.47398
     8.10000    55.66242    45.51724    39.47398
     8.20000    55.26115    44.48276    39.47398
     8.30000    54.80255    45.00000    39.47398
     8.40000    54.40127    45.00000    39.47398
     8.50000    53.94268    45.52941    39.47398
     8.60000    53.54140    45.52941    39.47398
     8.70000    53.08280    45.00000    39.47398
     8.80000    52.68153    45.00000    39.47398
     8.90000    52.22293    45.54217    39.47398
     9.00000    51.82166    44.45783    39.47398
     9.10000    51.42038    45.00000    39.47398
     9.20000    50.96178    45.00000    39.47398
     9.30000    50.56051    45.55556    39.47398
     9.40000    50.10191    44.44444    39.47398
     9.50000    49.64331    45.00000    39.47398
     9.60000    49.24204    45.00000    39.47398
     9.70000    48.78344    44.43038    39.47398
     9.80000    48.38217    44.43038    39.47398
     9.90000    47.92357    45.00000    39.47398
    10.00000    47.52229    45.00000    39.47398
    10.10000    47.06369    44.41558    39.47398
    10.20000    46.60510    45.58442    39.47398
    10.30000    46.20382    45.00000    39.47398
    10.40000    45.74522    45.00000    39.47398
    10.50000    45.28662    45.60000    39.47398
    10.60000    44.88535    45.00000    39.47398
    10.70000    44.42675    45.00000    39.47398
    10.80000    43.96815    44.38356    39.47398
    10.90000    43.50955    45.61644    39.47398
    11.00000    43.05096    45.00000    39.47398
    11.10000    42.64968    44.36620    39.47398
    11.20000    42.19108    44.36620    39.47398
    11.30000    41.73248    45.00000    39.47398
    11.40000    41.27389    45.00000    39.47398
    11.50000    40.81529    44.34783    39.47398
    11.60000    40.35669    45.00000    39.47398
    11.70000    39.89809    45.00000    39.47398
    11.80000    39.43949    44.32836    39.47398
    11.90000    38.98089    45.00000    39.47398
    12.00000    38.52229    45.00000    39.47398
    12.10000    38.00637    44.30769    39.47398
    12.20000    37.54777    45.00000    39.47398
    12.30000    37.08917    45.00000    39.47398
    12.40000    36.63057    44.28571    39.47398
    12.50000    36.11465    45.00000    39.47398
    12.60000    35.65605    45.00000    39.47398
    12.70000    35.14013    45.73770    39.47398
    12.80000    34.68153    45.00000    39.47398
    12.90000    34.16561    45.76271    39.47398
    13.00000    33.70701    44.23729    39.47398
    13.10000    33.19108    45.00000    39.47398
    13.20000    32.67516    45.78947    39.47398
    13.30000    32.15924    45.00000    39.47398
    13.40000    31.64331    44.18182    39.47398
    13.50000    31.12739    45.81818    39.47398
    13.60000    30.61146    45.00000    39.47398
    13.70000    30.09554    44.15094    39.47398
    13.80000    29.52229    45.00000    39.47398
    13.90000    29.00637    44.11765    39.47398
    14.00000    28.43312    45.00000    39.47398
    14.10000    27.91720    45.00000    39.47398
    14.20000    27.34395    44.08163    39.47398
    14.30000    26.77070    45.00000    39.47398
    14.40000    26.19745    45.95745    39.47398
    14.50000    25.62420    45.00000    39.47398
    14.60000    24.99363    44.00000    39.47398
    14.70000    24.42038    45.00000    39.47398
    14.80000    23.78981    43.95349    39.47398
    14.90000    23.15924    45.00000    39.47398
    15.00000    22.52866    43.90244    39.47398
    15.10000    21.89809    45.00000    39.47398
    15.20000    21.21019    45.00000    39.47398
    15.30000    20.52229    46.21622    39.47398
    15.40000    19.77707    45.00000    39.47398
    15.50000    19.08917    46.28571    39.47398
    15.60000    18.28662    43.63636    39.47398
    15.70000    17.54140    45.00000    39.47398
    15.80000    16.73885    46.45161    39.47398
    15.90000    15.87898    46.55172    39.47398
    16.00000    14.96178    45.00000    39.47398
    16.10000    14.04459    45.00000    39.47398
    16.20000    13.07006    45.00000    39.47398
    16.30000    11.98089    45.00000    39.47398
    16.40000    10.83439    45.00000    39.47398
    16.50000     9.51592    45.00000    39.47398
    16.60000     8.02548    48.00000    39.47398
    16.70000     6.13376    45.00000    39.47398
    16.80000     3.43949    51.42857    39.47398
    16.90000     0.00000     0.00000    39.47398
    17.00000     0.00000     0.00000    39.47398
    17.10000     0.00000     0.00000    39.47398
    17.20000     0.00000     0.00000    39.47398
    17.30000     0.00000     0.00000    39.47398
    17.40000     0.00000     0.00000    39.47398
    17.50000     0.00000     0.00000    39.47398
    17.60000     0.00000     0.00000    39.47398
    17.70000     0.00000     0.00000    39.47398
    17.80000     0.00000     0.00000    39.47398
    17.90000     0.00000     0.00000    39.47398
    18.00000     0.00000     0.00000    39.47398
    18.10000     0.00000     0.00000    39.47398
    18.20000     0.00000     0.00000    39.47398
    18.30000     0.00000     0.00000    39.47398
    18.40000     0.00000     0.00000    39.47398
    18.50000     0.00000     0.00000    39.47398
    18.60000     0.00000     0.00000    39.47398
    18.70000     0.00000     0.00000    39.47398
    18.80000     0.00000     0.00000    39.47398
    18.90000     0.00000     0.00000    39.47398
    19.00000     0.00000     0.00000    39.47398
    19.10000     0.00000     0.00000    39.47398
    19.20000     0.00000     0.00000    39.47398
    19.30000     0.00000     0.00000    39.47398
    19.40000     0.00000     0.00000    39.47398
    19.50000     0.00000     0.00000    39.47398
    19.60000     0.00000     0.00000    39.47398
    19.70000     0.00000     0.00000    39.47398
    19.80000     0.00000     0.00000    39.47398
    19.90000     0.00000     0.00000    39.47398
    20.00000     0.00000     0.00000    39.47398
    20.10000     0.00000     0.00000    39.47398
    20.20000     0.00000     0.00000    39.47398
    20.30000     0.00000     0.00000    39.47398
    20.40000     0.00000     0.00000    39.47398
    20.50000     0.00000     0.00000    39.47398
    20.60000     0.00000     0.00000    39.47398
    20.70000     0.00000     0.00000    39.47398
    20.80000     0.00000     0.00000    39.47398
    20.90000     0.00000     0.00000    39.47398
    21.00000     0.00000     0.00000    39.47398
    21.10000     0.00000     0.00000    39.47398
    21.20000     0.00000     0.00000    39.47398
    21.30000     0.00000     0.00000    39.47398
    21.40000     0.00000     0.00000    39.47398
    21.50000     0.00000     0.00000    39.47398
    21.60000     0.00000     0.00000    39.47398
    21.70000     0.00000     0.00000    39.47398
    21.80000     0.00000     0.00000    39.47398
    21.90000     0.00000     0.00000    39.47398
    22.00000     0.00000     0.00000    39.47398
    22.10000     0.00000     0.00000    39.47398
    22.20000     0.00000     0.00000    39.47398
    22.30000     0.00000     0.00000    39.47398
    22.40000     0.00000     0.00000    39.47398
    22.50000     0.00000     0.00000    39.47398
    22.60000     0.00000     0.00000    39.47398
    22.70000     0.00000     0.00000    39.47398
    22.80000     0.00000     0.00000    39.47398
    22.90000     0.00000     0.00000    39.47398
    23.00000     0.00000     0.00000    39.47398
    23.10000     0.00000     0.00000    39.47398
    23.20000     0.00000     0.00000    39.47398
    23.30000     0.00000     0.00000    39.47398
    23.40000     0.00000     0.00000    39.47398
    23.50000     0.00000     0.00000    39.47398
    23.60000     0.00000     0.00000    39.47398
    23.70000     0.00000     0.00000    39.47398
    23.80000     0.00000     0.00000    39.47398
    23.90000     0.00000     0.00000    39.47398
    24.00000     0.00000     0.00000    39.47398
    24.10000     0.00000     0.00000    39.47398
    24.20000     0.00000     0.00000    39.47398
    24.30000     0.00000     0.00000    39.47398
    24.40000     0.00000     0.00000    39.47398
    24.50000     0.00000     0.00000    39.47398
    24.60000     0.00000     0.00000    39.47398
    24.70000     0.00000     0.00000    39.47398
    24.80000     0.00000     0.00000    39.47398
    24.90000     0.00000     0.00000    39.47398
    25.00000     0.00000     0.00000    39.47398
    25.10000     0.00000     0.00000    39.47398
    25.20000     0.00000     0.00000    39.47398
    25.30000     0.00000     0.00000    39.47398
    25.40000     0.00000     0.00000    39.47398
    25.50000     0.00000     0.00000    39.47398
    25.60000     0.00000     0.00000    39.47398
    25.70000     0.00000     0.00000    39.47398
    25.80000     0.00000     0.00000    39.47398
    25.90000     0.00000     0.00000    39.47398
    26.00000     0.00000     0.00000    39.47398
    26.10000     0.00000     0.00000    39.47398
    26.20000     0.00000     0.00000    39.47398
    26.30000     0.00000     0.00000    39.47398
    26.40000     0.00000     0.00000    39.47398
    26.50000     0.00000     0.00000    39.47398
    26.60000     0.00000     0.00000    39.47398
    26.70000     0.00000     0.00000    39.47398
    26.80000     0.00000     0.00000    39.47398
    26.90000     0.00000     0.00000    39.47398
    27.00000     0.00000     0.00000    39.47398
    27.10000     0.00000     0.00000    39.47398
    27.20000     0.00000     0.00000    39.47398
    27.30000     0.00000     0.00000    39.47398
    27.40000     0.00000     0.00000    39.47398
    27.50000     0.00000     0.00000    39.47398
    27.60000     0.00000     0.00000    39.47398
    27.70000     0.00000     0.00000    39.47398
    27.80000     0.00000     0.00000    39.47398
    27.90000     0.00000     0.00000    39.47398
    28.00000     0.00000     0.00000    39.47398
    28.10000     0.00000     0.00000    39.47398
    28.20000     0.00000     0.00000    39.47398
    28.30000     0.00000     0.00000    39.47398
    28.40000     0.00000     0.00000    39.47398
    28.50000     0.00000     0.00000    39.47398
    28.60000     0.00000     0.00000    39.47398
    28.70000     0.00000     0.00000    39.47398
    28.80000     0.00000     0.00000    39.47398
    28.90000     0.00000     0.00000    39.47398
    29.00000     0.00000     0.00000    39.47398
    29.10000     0.00000     0.00000    39.47398
    29.20000     0.00000     0.00000    39.47398
    29.30000     0.00000     0.00000    39.47398
    29.40000     0.00000     0.00000    39.47398
    29.50000     0.00000     0.00000    39.47398
    29.60000     0.00000     0.00000    39.47398
    29.70000     0.00000     0.00000    39.47398
    29.80000     0.00000     0.00000    39.47398
    29.90000     0.00000     0.00000    39.47398
    30.00000     0.00000     0.00000    39.47398
    30.10000     0.00000     0.00000    39.47398
    30.20000     0.00000     0.00000    39.47398
    30.30000     0.00000     0.00000    39.47398
    30.40000     0.00000     0.00000    39.47398
    30.50000     0.00000     0.00000    39.47398
    30.60000     0.00000     0.00000    39.47398
    30.70000     0.00000     0.00000    39.47398
    30.80000     0.00000     0.00000    39.47398
    30.90000     0.00000     0.00000    39.47398
    31.00000     0.00000     0.00000    39.47398
    31.10000     0.00000     0.00000    39.47398
    31.20000     0.00000     0.00000    39.47398
    31.30000     0.00000     0.00000    39.47398
    31.40000     0.00000     0.00000    39.47398
    31.50000     0.00000     0.00000    39.47398
    31.60000     0.00000     0.00000    39.47398
    31.70000     0.00000     0.00000    39.47398
    31.80000     0.00000     0.00000    39.47398
    31.90000     0.00000     0.00000    39.47398
    32.00000     0.00000     0.00000    39.47398
    32.10000     0.00000     0.00000    39.47398
    32.20000     0.00000     0.00000    39.47398
    32.30000     0.00000     0.00000    39.47398
    32.40000     0.00000     0.00000    39.47398
    32.50000     0.00000     0.00000    39.47398
    32.60000     0.00000     0.00000    39.47398
    32.70000     0.00000     0.00000    39.47398
    32.80000     0.00000     0.00000    39.47398
    32.90000     0.00000     0.00000    39.47398
    33.00000     0.00000     0.00000    39.47398
    33.10000     0.00000     0.00000    39.47398
    33.20000     0.00000     0.00000    39.47398
    33.30000     0.00000     0.00000    39.47398
    33.40000     0.00000     0.00000    39.47398
    33.50000     0.00000     0.00000    39.47398
    33.60000     0.00000     0.00000    39.47398
    33.70000     0.00000     0.00000    39.47398
    33.80000     0.00000     0.00000    39.47398
    33.90000     0.00000     0.00000    39.47398
    34.00000     0.00000     0.00000    39.47398
    34.10000     0.00000     0.00000    39.47398
    34.20000     0.00000     0.00000    39.47398
    34.30000     0.00000     0.00000    39.47398
    34.40000     0.00000     0.00000    39.47398
    34.50000     0.00000     0.00000    39.47398
    34.60000     0.00000     0.00000    39.47398
    34.70000     0.00000     0.00000    39.47398
    34.80000     0.00000     0.00000    39.47398
    34.90000     0.00000     0.00000    39.47398
    35.00000     0.00000     0.00000    39.47398
    35.10000     0.00000     0.00000    39.47398
    35.20000     0.00000     0.00000    39.47398
    35.30000     0.00000     0.00000    39.47398
    35.40000     0.00000     0.00000    39.47398
    35.50000     0.00000     0.00000    39.47398
    35.60000     0.00000     0.00000    39.47398
    35.70000     0.00000     0.00000    39.47398
    35.80000     0.00000     0.00000    39.47398
    35.90000     0.00000     0.00000    39.47398
    36.00000     0.00000     0.00000    39.47398
    36.10000     0.00000     0.00000    39.47398
    36.20000     0.00000     0.00000    39.47398
    36.30000     0.00000     0.00000    39.47398
    36.40000     0.00000     0.00000    39.47398
    36.50000     0.00000     0.00000    39.47398
    36.60000     0.00000     0.00000    39.47398
    36.70000     0.00000     0.00000    39.47398
    36.80000     0.00000     0.00000    39.47398
    36.90000     0.00000     0.00000    39.47398
    37.00000     0.00000     0.00000    39.47398
    37.10000     0.00000     0.00000    39.47398
    37.20000     0.00000     0.00000    39.47398
    37.30000     0.00000     0.00000    39.47398
    37.40000     0.00000     0.00000    39.47398
    37.50000     0.00000     0.00000    39.47398
    37.60000     0.00000     0.00000    39.47398
    37.70000     0.00000     0.00000    39.47398
    37.80000     0.00000     0.00000    39.47398
    37.90000     0.00000     0.00000    39.47398
    38.00000     0.00000     0.00000    39.47398
    38.10000     0.00000     0.00000    39.47398
    38.20000     0.00000     0.00000    39.47398
    38.30000     0.00000     0.00000    39.47398
    38.40000     0.00000     0.00000    39.47398
    38.50000     0.00000     0.00000    39.47398
    38.60000     0.00000     0.00000    39.47398
    38.70000     0.00000     0.00000    39.47398
    38.80000     0.00000     0.00000    39.47398
    38.90000     0.00000     0.00000    39.47398
    39.00000     0.00000     0.00000    39.47398
    39.10000     0.00000     0.00000    39.47398
    39.20000     0.00000     0.00000    39.47398
    39.30000     0.00000     0.00000    39.47398
    39.40000     0.00000     0.00000    39.47398
    39.50000     0.00000     0.00000    39.47398
    39.60000     0.00000     0.00000    39.47398
    39.70000     0.00000     0.00000    39.47398
    39.80000     0.00000     0.00000    39.47398
    39.90000     0.00000     0.00000    39.47398
    40.00000     0.00000     0.00000    39.47398
