 # applied field (T), theta (degree), phi (degree), abs [muB/unitcell], abs [T]
       0.00000000       0.00000000       0.00000000      34.70673077       1.16817076
       0.10000000       3.43848614     360.00000000      34.70650579       1.16816319
       0.20000000      90.00000000     360.00000000      34.72461098       1.16877258
       0.30000000      90.00000000     360.00000000      34.72484059       1.16878031
       0.40000000      90.00000000     360.00000000      34.72507018       1.16878803
       0.50000000      90.00000000     360.00000000      34.72529974       1.16879576
       0.60000000      90.00000000     360.00000000      34.72552929       1.16880349
       0.70000000      90.00000000     360.00000000      34.72575880       1.16881121
       0.80000000      90.00000000     360.00000000      34.72598830       1.16881894
       0.90000000      90.00000000     360.00000000      34.72621777       1.16882666
       1.00000000      90.00000000     360.00000000      34.72644722       1.16883438
       1.10000000      90.00000000     360.00000000      34.72667665       1.16884211
       1.20000000      90.00000000     360.00000000      34.72690605       1.16884983
       1.30000000      90.00000000     360.00000000      34.72713543       1.16885755
       1.40000000      90.00000000     360.00000000      34.72736478       1.16886527
       1.50000000      90.00000000     360.00000000      34.72759412       1.16887299
       1.60000000      90.00000000     360.00000000      34.72782342       1.16888070
       1.70000000      90.00000000     360.00000000      34.72805271       1.16888842
       1.80000000      90.00000000     360.00000000      34.72828197       1.16889614
       1.90000000      90.00000000     360.00000000      34.72851121       1.16890385
       2.00000000      90.00000000     360.00000000      34.72874043       1.16891157
       2.10000000      90.00000000     360.00000000      34.72896962       1.16891928
       2.20000000      90.00000000     360.00000000      34.72919879       1.16892700
       2.30000000      90.00000000     360.00000000      34.72942794       1.16893471
       2.40000000      90.00000000     360.00000000      34.72965706       1.16894242
       2.50000000      90.00000000     360.00000000      34.72988616       1.16895013
       2.60000000      90.00000000     360.00000000      34.73011524       1.16895784
       2.70000000      90.00000000     360.00000000      34.73034429       1.16896555
       2.80000000      90.00000000     360.00000000      34.73057332       1.16897326
       2.90000000      90.00000000     360.00000000      34.73080233       1.16898097
       3.00000000      90.00000000     360.00000000      34.73103131       1.16898868
       3.10000000      90.00000000     360.00000000      34.73126028       1.16899638
       3.20000000      90.00000000     360.00000000      34.73148921       1.16900409
       3.30000000      90.00000000     360.00000000      34.73171813       1.16901179
       3.40000000      90.00000000     360.00000000      34.73194702       1.16901950
       3.50000000      90.00000000     360.00000000      34.73217589       1.16902720
       3.60000000      90.00000000     360.00000000      34.73240473       1.16903490
       3.70000000      90.00000000     360.00000000      34.73263356       1.16904260
       3.80000000      90.00000000     360.00000000      34.73286236       1.16905031
       3.90000000      90.00000000     360.00000000      34.73309113       1.16905801
       4.00000000      90.00000000     360.00000000      34.73331989       1.16906571
       4.10000000      90.00000000     360.00000000      34.73354862       1.16907340
       4.20000000      90.00000000     360.00000000      34.73377732       1.16908110
       4.30000000      90.00000000     360.00000000      34.73400601       1.16908880
       4.40000000      90.00000000     360.00000000      34.73423467       1.16909650
       4.50000000      90.00000000     360.00000000      34.73446331       1.16910419
       4.60000000      90.00000000     360.00000000      34.73469192       1.16911189
       4.70000000      90.00000000     360.00000000      34.73492051       1.16911958
       4.80000000      90.00000000     360.00000000      34.73514908       1.16912727
       4.90000000      90.00000000     360.00000000      34.73537763       1.16913497
       5.00000000      90.00000000     360.00000000      34.73560615       1.16914266
       5.10000000      90.00000000     360.00000000      34.73583465       1.16915035
       5.20000000      90.00000000     360.00000000      34.73606313       1.16915804
       5.30000000      90.00000000     360.00000000      34.73629159       1.16916573
       5.40000000      90.00000000     360.00000000      34.73652002       1.16917342
       5.50000000      90.00000000     360.00000000      34.73674843       1.16918110
       5.60000000      90.00000000     360.00000000      34.73697681       1.16918879
       5.70000000      90.00000000     360.00000000      34.73720517       1.16919648
       5.80000000      90.00000000     360.00000000      34.73743351       1.16920416
       5.90000000      90.00000000     360.00000000      34.73766183       1.16921185
       6.00000000      90.00000000     360.00000000      34.73789012       1.16921953
       6.10000000      90.00000000     360.00000000      34.73811839       1.16922722
       6.20000000      90.00000000     360.00000000      34.73834664       1.16923490
       6.30000000      90.00000000     360.00000000      34.73857487       1.16924258
       6.40000000      90.00000000     360.00000000      34.73880307       1.16925026
       6.50000000      90.00000000     360.00000000      34.73903125       1.16925794
       6.60000000      90.00000000     360.00000000      34.73925941       1.16926562
       6.70000000      90.00000000     360.00000000      34.73948754       1.16927330
       6.80000000      90.00000000     360.00000000      34.73971565       1.16928098
       6.90000000      90.00000000     360.00000000      34.73994374       1.16928865
       7.00000000      90.00000000     360.00000000      34.74017181       1.16929633
       7.10000000      90.00000000     360.00000000      34.74039985       1.16930401
       7.20000000      90.00000000     360.00000000      34.74062787       1.16931168
       7.30000000      90.00000000     360.00000000      34.74085587       1.16931935
       7.40000000      90.00000000     360.00000000      34.74108384       1.16932703
       7.50000000      90.00000000     360.00000000      34.74131179       1.16933470
       7.60000000      90.00000000     360.00000000      34.74153972       1.16934237
       7.70000000      90.00000000     360.00000000      34.74176763       1.16935004
       7.80000000      90.00000000     360.00000000      34.74199551       1.16935771
       7.90000000      90.00000000     360.00000000      34.74222337       1.16936538
       8.00000000      90.00000000     360.00000000      34.74245121       1.16937305
       8.10000000      90.00000000     360.00000000      34.74267903       1.16938072
       8.20000000      90.00000000     360.00000000      34.74290682       1.16938839
       8.30000000      90.00000000     360.00000000      34.74313459       1.16939605
       8.40000000      90.00000000     360.00000000      34.74336233       1.16940372
       8.50000000      90.00000000     360.00000000      34.74359006       1.16941138
       8.60000000      90.00000000     360.00000000      34.74381776       1.16941905
       8.70000000      90.00000000     360.00000000      34.74404544       1.16942671
       8.80000000      90.00000000     360.00000000      34.74427310       1.16943437
       8.90000000      90.00000000     360.00000000      34.74450073       1.16944203
       9.00000000      90.00000000     360.00000000      34.74472834       1.16944970
       9.10000000      90.00000000     360.00000000      34.74495593       1.16945736
       9.20000000      90.00000000     360.00000000      34.74518350       1.16946501
       9.30000000      90.00000000     360.00000000      34.74541104       1.16947267
       9.40000000      90.00000000     360.00000000      34.74563856       1.16948033
       9.50000000      90.00000000     360.00000000      34.74586606       1.16948799
       9.60000000      90.00000000     360.00000000      34.74609354       1.16949565
       9.70000000      90.00000000     360.00000000      34.74632099       1.16950330
       9.80000000      90.00000000     360.00000000      34.74654842       1.16951096
       9.90000000      90.00000000     360.00000000      34.74677583       1.16951861
      10.00000000      90.00000000     360.00000000      34.74700321       1.16952626
      10.10000000      90.00000000     360.00000000      34.74723058       1.16953392
      10.20000000      90.00000000     360.00000000      34.74745792       1.16954157
      10.30000000      90.00000000     360.00000000      34.74768523       1.16954922
      10.40000000      90.00000000     360.00000000      34.74791253       1.16955687
      10.50000000      90.00000000     360.00000000      34.74813980       1.16956452
      10.60000000      90.00000000     360.00000000      34.74836705       1.16957217
      10.70000000      90.00000000     360.00000000      34.74859428       1.16957982
      10.80000000      90.00000000     360.00000000      34.74882149       1.16958746
      10.90000000      90.00000000     360.00000000      34.74904867       1.16959511
      11.00000000      90.00000000     360.00000000      34.74927583       1.16960276
      11.10000000      90.00000000     360.00000000      34.74950297       1.16961040
      11.20000000      90.00000000     360.00000000      34.74973008       1.16961805
      11.30000000      90.00000000     360.00000000      34.74995718       1.16962569
      11.40000000      90.00000000     360.00000000      34.75018425       1.16963333
      11.50000000      90.00000000     360.00000000      34.75041129       1.16964097
      11.60000000      90.00000000     360.00000000      34.75063832       1.16964862
      11.70000000      90.00000000     360.00000000      34.75086532       1.16965626
      11.80000000      90.00000000     360.00000000      34.75109230       1.16966390
      11.90000000      90.00000000     360.00000000      34.75131926       1.16967153
      12.00000000      90.00000000     360.00000000      34.75154620       1.16967917
      12.10000000      90.00000000     360.00000000      34.75177311       1.16968681
      12.20000000      90.00000000     360.00000000      34.75200001       1.16969445
      12.30000000      90.00000000     360.00000000      34.75222687       1.16970208
      12.40000000      90.00000000     360.00000000      34.75245372       1.16970972
      12.50000000      90.00000000     360.00000000      34.75268055       1.16971735
      12.60000000      90.00000000     360.00000000      34.75290735       1.16972499
      12.70000000      90.00000000     360.00000000      34.75313413       1.16973262
      12.80000000      90.00000000     360.00000000      34.75336089       1.16974025
      12.90000000      90.00000000     360.00000000      34.75358762       1.16974788
      13.00000000      90.00000000     360.00000000      34.75381433       1.16975551
      13.10000000      90.00000000     360.00000000      34.75404103       1.16976314
      13.20000000      90.00000000     360.00000000      34.75426769       1.16977077
      13.30000000      90.00000000     360.00000000      34.75449434       1.16977840
      13.40000000      90.00000000     360.00000000      34.75472096       1.16978603
      13.50000000      90.00000000     360.00000000      34.75494757       1.16979366
      13.60000000      90.00000000     360.00000000      34.75517415       1.16980128
      13.70000000      90.00000000     360.00000000      34.75540070       1.16980891
      13.80000000      90.00000000     360.00000000      34.75562724       1.16981653
      13.90000000      90.00000000     360.00000000      34.75585375       1.16982416
      14.00000000      90.00000000     360.00000000      34.75608024       1.16983178
      14.10000000      90.00000000     360.00000000      34.75630671       1.16983940
      14.20000000      90.00000000     360.00000000      34.75653316       1.16984703
      14.30000000      90.00000000     360.00000000      34.75675958       1.16985465
      14.40000000      90.00000000     360.00000000      34.75698598       1.16986227
      14.50000000      90.00000000     360.00000000      34.75721236       1.16986989
      14.60000000      90.00000000     360.00000000      34.75743872       1.16987751
      14.70000000      90.00000000     360.00000000      34.75766505       1.16988512
      14.80000000      90.00000000     360.00000000      34.75789137       1.16989274
      14.90000000      90.00000000     360.00000000      34.75811766       1.16990036
      15.00000000      90.00000000     360.00000000      34.75834393       1.16990797
      15.10000000      90.00000000     360.00000000      34.75857017       1.16991559
      15.20000000      90.00000000     360.00000000      34.75879640       1.16992320
      15.30000000      90.00000000     360.00000000      34.75902260       1.16993082
      15.40000000      90.00000000     360.00000000      34.75924878       1.16993843
      15.50000000      90.00000000     360.00000000      34.75947494       1.16994604
      15.60000000      90.00000000     360.00000000      34.75970108       1.16995365
      15.70000000      90.00000000     360.00000000      34.75992719       1.16996126
      15.80000000      90.00000000     360.00000000      34.76015329       1.16996887
      15.90000000      90.00000000     360.00000000      34.76037936       1.16997648
      16.00000000      90.00000000     360.00000000      34.76060540       1.16998409
      16.10000000      90.00000000     360.00000000      34.76083143       1.16999170
      16.20000000      90.00000000     360.00000000      34.76105743       1.16999931
      16.30000000      90.00000000     360.00000000      34.76128342       1.17000691
      16.40000000      90.00000000     360.00000000      34.76150938       1.17001452
      16.50000000      90.00000000     360.00000000      34.76173532       1.17002212
      16.60000000      90.00000000     360.00000000      34.76196123       1.17002973
      16.70000000      90.00000000     360.00000000      34.76218713       1.17003733
      16.80000000      90.00000000     360.00000000      34.76241300       1.17004493
      16.90000000      90.00000000     360.00000000      34.76263885       1.17005253
      17.00000000      90.00000000     360.00000000      34.76286468       1.17006013
      17.10000000      90.00000000     360.00000000      34.76309048       1.17006773
      17.20000000      90.00000000     360.00000000      34.76331627       1.17007533
      17.30000000      90.00000000     360.00000000      34.76354203       1.17008293
      17.40000000      90.00000000     360.00000000      34.76376777       1.17009053
      17.50000000      90.00000000     360.00000000      34.76399349       1.17009813
      17.60000000      90.00000000     360.00000000      34.76421919       1.17010572
      17.70000000      90.00000000     360.00000000      34.76444486       1.17011332
      17.80000000      90.00000000     360.00000000      34.76467052       1.17012092
      17.90000000      90.00000000     360.00000000      34.76489615       1.17012851
      18.00000000      90.00000000     360.00000000      34.76512176       1.17013610
      18.10000000      90.00000000     360.00000000      34.76534734       1.17014370
      18.20000000      90.00000000     360.00000000      34.76557291       1.17015129
      18.30000000      90.00000000     360.00000000      34.76579845       1.17015888
      18.40000000      90.00000000     360.00000000      34.76602398       1.17016647
      18.50000000      90.00000000     360.00000000      34.76624948       1.17017406
      18.60000000      90.00000000     360.00000000      34.76647496       1.17018165
      18.70000000      90.00000000     360.00000000      34.76670041       1.17018924
      18.80000000      90.00000000     360.00000000      34.76692585       1.17019683
      18.90000000      90.00000000     360.00000000      34.76715126       1.17020441
      19.00000000      90.00000000     360.00000000      34.76737665       1.17021200
      19.10000000      90.00000000     360.00000000      34.76760202       1.17021958
      19.20000000      90.00000000     360.00000000      34.76782737       1.17022717
      19.30000000      90.00000000     360.00000000      34.76805269       1.17023475
      19.40000000      90.00000000     360.00000000      34.76827800       1.17024234
      19.50000000      90.00000000     360.00000000      34.76850328       1.17024992
      19.60000000      90.00000000     360.00000000      34.76872854       1.17025750
      19.70000000      90.00000000     360.00000000      34.76895378       1.17026508
      19.80000000      90.00000000     360.00000000      34.76917900       1.17027266
      19.90000000      90.00000000     360.00000000      34.76940419       1.17028024
      20.00000000      90.00000000     360.00000000      34.76962937       1.17028782
      20.10000000      90.00000000     360.00000000      34.76985452       1.17029540
      20.20000000      90.00000000     360.00000000      34.77007965       1.17030298
      20.30000000      90.00000000     360.00000000      34.77030476       1.17031055
      20.40000000      90.00000000     360.00000000      34.77052985       1.17031813
      20.50000000      90.00000000     360.00000000      34.77075491       1.17032571
      20.60000000      90.00000000     360.00000000      34.77097996       1.17033328
      20.70000000      90.00000000     360.00000000      34.77120498       1.17034085
      20.80000000      90.00000000     360.00000000      34.77142998       1.17034843
      20.90000000      90.00000000     360.00000000      34.77165496       1.17035600
      21.00000000      90.00000000     360.00000000      34.77187992       1.17036357
      21.10000000      90.00000000     360.00000000      34.77210485       1.17037114
      21.20000000      90.00000000     360.00000000      34.77232977       1.17037871
      21.30000000      90.00000000     360.00000000      34.77255466       1.17038628
      21.40000000      90.00000000     360.00000000      34.77277953       1.17039385
      21.50000000      90.00000000     360.00000000      34.77300438       1.17040142
      21.60000000      90.00000000     360.00000000      34.77322921       1.17040899
      21.70000000      90.00000000     360.00000000      34.77345402       1.17041655
      21.80000000      90.00000000     360.00000000      34.77367880       1.17042412
      21.90000000      90.00000000     360.00000000      34.77390356       1.17043168
      22.00000000      90.00000000     360.00000000      34.77412831       1.17043925
      22.10000000      90.00000000     360.00000000      34.77435303       1.17044681
      22.20000000      90.00000000     360.00000000      34.77457773       1.17045438
      22.30000000      90.00000000     360.00000000      34.77480240       1.17046194
      22.40000000      90.00000000     360.00000000      34.77502706       1.17046950
      22.50000000      90.00000000     360.00000000      34.77525169       1.17047706
      22.60000000      90.00000000     360.00000000      34.77547631       1.17048462
      22.70000000      90.00000000     360.00000000      34.77570090       1.17049218
      22.80000000      90.00000000     360.00000000      34.77592547       1.17049974
      22.90000000      90.00000000     360.00000000      34.77615002       1.17050730
      23.00000000      90.00000000     360.00000000      34.77637454       1.17051485
      23.10000000      90.00000000     360.00000000      34.77659905       1.17052241
      23.20000000      90.00000000     360.00000000      34.77682354       1.17052997
      23.30000000      90.00000000     360.00000000      34.77704800       1.17053752
      23.40000000      90.00000000     360.00000000      34.77727244       1.17054508
      23.50000000      90.00000000     360.00000000      34.77749686       1.17055263
      23.60000000      90.00000000     360.00000000      34.77772126       1.17056018
      23.70000000      90.00000000     360.00000000      34.77794564       1.17056773
      23.80000000      90.00000000     360.00000000      34.77816999       1.17057529
      23.90000000      90.00000000     360.00000000      34.77839433       1.17058284
      24.00000000      90.00000000     360.00000000      34.77861864       1.17059039
      24.10000000      90.00000000     360.00000000      34.77884293       1.17059794
      24.20000000      90.00000000     360.00000000      34.77906720       1.17060548
      24.30000000      90.00000000     360.00000000      34.77929145       1.17061303
      24.40000000      90.00000000     360.00000000      34.77951568       1.17062058
      24.50000000      90.00000000     360.00000000      34.77973989       1.17062813
      24.60000000      90.00000000     360.00000000      34.77996407       1.17063567
      24.70000000      90.00000000     360.00000000      34.78018824       1.17064322
      24.80000000      90.00000000     360.00000000      34.78041238       1.17065076
      24.90000000      90.00000000     360.00000000      34.78063650       1.17065830
      25.00000000      90.00000000     360.00000000      34.78086060       1.17066585
      25.10000000      90.00000000     360.00000000      34.78108468       1.17067339
      25.20000000      90.00000000     360.00000000      34.78130874       1.17068093
      25.30000000      90.00000000     360.00000000      34.78153277       1.17068847
      25.40000000      90.00000000     360.00000000      34.78175679       1.17069601
      25.50000000      90.00000000     360.00000000      34.78198078       1.17070355
      25.60000000      90.00000000     360.00000000      34.78220476       1.17071109
      25.70000000      90.00000000     360.00000000      34.78242871       1.17071863
      25.80000000      90.00000000     360.00000000      34.78265264       1.17072616
      25.90000000      90.00000000     360.00000000      34.78287655       1.17073370
      26.00000000      90.00000000     360.00000000      34.78310044       1.17074124
      26.10000000      90.00000000     360.00000000      34.78332430       1.17074877
      26.20000000      90.00000000     360.00000000      34.78354815       1.17075631
      26.30000000      90.00000000     360.00000000      34.78377197       1.17076384
      26.40000000      90.00000000     360.00000000      34.78399578       1.17077137
      26.50000000      90.00000000     360.00000000      34.78421956       1.17077890
      26.60000000      90.00000000     360.00000000      34.78444332       1.17078644
      26.70000000      90.00000000     360.00000000      34.78466706       1.17079397
      26.80000000      90.00000000     360.00000000      34.78489078       1.17080150
      26.90000000      90.00000000     360.00000000      34.78511448       1.17080903
      27.00000000      90.00000000     360.00000000      34.78533816       1.17081655
      27.10000000      90.00000000     360.00000000      34.78556181       1.17082408
      27.20000000      90.00000000     360.00000000      34.78578545       1.17083161
      27.30000000      90.00000000     360.00000000      34.78600906       1.17083914
      27.40000000      90.00000000     360.00000000      34.78623265       1.17084666
      27.50000000      90.00000000     360.00000000      34.78645622       1.17085419
      27.60000000      90.00000000     360.00000000      34.78667977       1.17086171
      27.70000000      90.00000000     360.00000000      34.78690330       1.17086923
      27.80000000      90.00000000     360.00000000      34.78712681       1.17087676
      27.90000000      90.00000000     360.00000000      34.78735030       1.17088428
      28.00000000      90.00000000     360.00000000      34.78757377       1.17089180
      28.10000000      90.00000000     360.00000000      34.78779721       1.17089932
      28.20000000      90.00000000     360.00000000      34.78802064       1.17090684
      28.30000000      90.00000000     360.00000000      34.78824404       1.17091436
      28.40000000      90.00000000     360.00000000      34.78846742       1.17092188
      28.50000000      90.00000000     360.00000000      34.78869078       1.17092940
      28.60000000      90.00000000     360.00000000      34.78891412       1.17093691
      28.70000000      90.00000000     360.00000000      34.78913744       1.17094443
      28.80000000      90.00000000     360.00000000      34.78936074       1.17095195
      28.90000000      90.00000000     360.00000000      34.78958402       1.17095946
      29.00000000      90.00000000     360.00000000      34.78980728       1.17096698
      29.10000000      90.00000000     360.00000000      34.79003051       1.17097449
      29.20000000      90.00000000     360.00000000      34.79025373       1.17098200
      29.30000000      90.00000000     360.00000000      34.79047692       1.17098952
      29.40000000      90.00000000     360.00000000      34.79070009       1.17099703
      29.50000000      90.00000000     360.00000000      34.79092325       1.17100454
      29.60000000      90.00000000     360.00000000      34.79114638       1.17101205
      29.70000000      90.00000000     360.00000000      34.79136949       1.17101956
      29.80000000      90.00000000     360.00000000      34.79159258       1.17102707
      29.90000000      90.00000000     360.00000000      34.79181565       1.17103458
      30.00000000      90.00000000     360.00000000      34.79203869       1.17104208
      30.10000000      90.00000000     360.00000000      34.79226172       1.17104959
      30.20000000      90.00000000     360.00000000      34.79248473       1.17105710
      30.30000000      90.00000000     360.00000000      34.79270771       1.17106460
      30.40000000      90.00000000     360.00000000      34.79293068       1.17107211
      30.50000000      90.00000000     360.00000000      34.79315362       1.17107961
      30.60000000      90.00000000     360.00000000      34.79337655       1.17108711
      30.70000000      90.00000000     360.00000000      34.79359945       1.17109462
      30.80000000      90.00000000     360.00000000      34.79382233       1.17110212
      30.90000000      90.00000000     360.00000000      34.79404519       1.17110962
      31.00000000      90.00000000     360.00000000      34.79426803       1.17111712
      31.10000000      90.00000000     360.00000000      34.79449085       1.17112462
      31.20000000      90.00000000     360.00000000      34.79471365       1.17113212
      31.30000000      90.00000000     360.00000000      34.79493643       1.17113962
      31.40000000      90.00000000     360.00000000      34.79515918       1.17114711
      31.50000000      90.00000000     360.00000000      34.79538192       1.17115461
      31.60000000      90.00000000     360.00000000      34.79560464       1.17116211
      31.70000000      90.00000000     360.00000000      34.79582733       1.17116960
      31.80000000      90.00000000     360.00000000      34.79605000       1.17117710
      31.90000000      90.00000000     360.00000000      34.79627266       1.17118459
      32.00000000      90.00000000     360.00000000      34.79649529       1.17119208
      32.10000000      90.00000000     360.00000000      34.79671790       1.17119958
      32.20000000      90.00000000     360.00000000      34.79694050       1.17120707
      32.30000000      90.00000000     360.00000000      34.79716307       1.17121456
      32.40000000      90.00000000     360.00000000      34.79738562       1.17122205
      32.50000000      90.00000000     360.00000000      34.79760815       1.17122954
      32.60000000      90.00000000     360.00000000      34.79783066       1.17123703
      32.70000000      90.00000000     360.00000000      34.79805314       1.17124452
      32.80000000      90.00000000     360.00000000      34.79827561       1.17125201
      32.90000000      90.00000000     360.00000000      34.79849806       1.17125949
      33.00000000      90.00000000     360.00000000      34.79872049       1.17126698
      33.10000000      90.00000000     360.00000000      34.79894289       1.17127447
      33.20000000      90.00000000     360.00000000      34.79916528       1.17128195
      33.30000000      90.00000000     360.00000000      34.79938764       1.17128944
      33.40000000      90.00000000     360.00000000      34.79960999       1.17129692
      33.50000000      90.00000000     360.00000000      34.79983231       1.17130440
      33.60000000      90.00000000     360.00000000      34.80005462       1.17131189
      33.70000000      90.00000000     360.00000000      34.80027690       1.17131937
      33.80000000      90.00000000     360.00000000      34.80049916       1.17132685
      33.90000000      90.00000000     360.00000000      34.80072140       1.17133433
      34.00000000      90.00000000     360.00000000      34.80094363       1.17134181
      34.10000000      90.00000000     360.00000000      34.80116583       1.17134929
      34.20000000      90.00000000     360.00000000      34.80138801       1.17135677
      34.30000000      90.00000000     360.00000000      34.80161017       1.17136424
      34.40000000      90.00000000     360.00000000      34.80183231       1.17137172
      34.50000000      90.00000000     360.00000000      34.80205443       1.17137920
      34.60000000      90.00000000     360.00000000      34.80227652       1.17138667
      34.70000000      90.00000000     360.00000000      34.80249860       1.17139415
      34.80000000      90.00000000     360.00000000      34.80272066       1.17140162
      34.90000000      90.00000000     360.00000000      34.80294270       1.17140909
      35.00000000      90.00000000     360.00000000      34.80316471       1.17141657
      35.10000000      90.00000000     360.00000000      34.80338671       1.17142404
      35.20000000      90.00000000     360.00000000      34.80360869       1.17143151
      35.30000000      90.00000000     360.00000000      34.80383064       1.17143898
      35.40000000      90.00000000     360.00000000      34.80405258       1.17144645
      35.50000000      90.00000000     360.00000000      34.80427449       1.17145392
      35.60000000      90.00000000     360.00000000      34.80449639       1.17146139
      35.70000000      90.00000000     360.00000000      34.80471826       1.17146886
      35.80000000      90.00000000     360.00000000      34.80494012       1.17147632
      35.90000000      90.00000000     360.00000000      34.80516195       1.17148379
      36.00000000      90.00000000     360.00000000      34.80538376       1.17149126
      36.10000000      90.00000000     360.00000000      34.80560556       1.17149872
      36.20000000      90.00000000     360.00000000      34.80582733       1.17150619
      36.30000000      90.00000000     360.00000000      34.80604908       1.17151365
      36.40000000      90.00000000     360.00000000      34.80627081       1.17152111
      36.50000000      90.00000000     360.00000000      34.80649253       1.17152857
      36.60000000      90.00000000     360.00000000      34.80671422       1.17153604
      36.70000000      90.00000000     360.00000000      34.80693589       1.17154350
      36.80000000      90.00000000     360.00000000      34.80715754       1.17155096
      36.90000000      90.00000000     360.00000000      34.80737917       1.17155842
      37.00000000      90.00000000     360.00000000      34.80760078       1.17156588
      37.10000000      90.00000000     360.00000000      34.80782237       1.17157334
      37.20000000      90.00000000     360.00000000      34.80804394       1.17158079
      37.30000000      90.00000000     360.00000000      34.80826549       1.17158825
      37.40000000      90.00000000     360.00000000      34.80848702       1.17159571
      37.50000000      90.00000000     360.00000000      34.80870853       1.17160316
      37.60000000      90.00000000     360.00000000      34.80893002       1.17161062
      37.70000000      90.00000000     360.00000000      34.80915149       1.17161807
      37.80000000      90.00000000     360.00000000      34.80937294       1.17162552
      37.90000000      90.00000000     360.00000000      34.80959437       1.17163298
      38.00000000      90.00000000     360.00000000      34.80981578       1.17164043
      38.10000000      90.00000000     360.00000000      34.81003716       1.17164788
      38.20000000      90.00000000     360.00000000      34.81025853       1.17165533
      38.30000000      90.00000000     360.00000000      34.81047988       1.17166278
      38.40000000      90.00000000     360.00000000      34.81070121       1.17167023
      38.50000000      90.00000000     360.00000000      34.81092252       1.17167768
      38.60000000      90.00000000     360.00000000      34.81114380       1.17168513
      38.70000000      90.00000000     360.00000000      34.81136507       1.17169258
      38.80000000      90.00000000     360.00000000      34.81158632       1.17170002
      38.90000000      90.00000000     360.00000000      34.81180755       1.17170747
      39.00000000      90.00000000     360.00000000      34.81202876       1.17171491
      39.10000000      90.00000000     360.00000000      34.81224994       1.17172236
      39.20000000      90.00000000     360.00000000      34.81247111       1.17172980
      39.30000000      90.00000000     360.00000000      34.81269226       1.17173725
      39.40000000      90.00000000     360.00000000      34.81291339       1.17174469
      39.50000000      90.00000000     360.00000000      34.81313449       1.17175213
      39.60000000      90.00000000     360.00000000      34.81335558       1.17175957
      39.70000000      90.00000000     360.00000000      34.81357665       1.17176701
      39.80000000      90.00000000     360.00000000      34.81379769       1.17177445
      39.90000000      90.00000000     360.00000000      34.81401872       1.17178189
      40.00000000      90.00000000     360.00000000      34.81423973       1.17178933
