 # applied field (T), theta (degree), phi (degree), abs for RE 1-2
     0.00000     1.02300   315.00000     0.31080     1.02300   225.00000     0.31080
     0.10000     1.16391   319.52831     0.31082     0.89076   230.92458     0.31080
     0.20000     1.31083   323.05941     0.31083     0.77149   238.79652     0.31080
     0.30000     1.48043   326.09747     0.31086     0.66086   250.59140     0.31080
     0.40000     1.63526   328.32795     0.31089     0.59497   264.42457     0.31081
     0.50000     1.79262   330.17032     0.31092     0.57080   280.50798     0.31083
     0.60000     1.95207   331.71443     0.31096     0.59355   296.64366     0.31085
     0.70000     2.13265   333.12133     0.31101     0.66691   312.07807     0.31089
     0.80000     2.29570   334.23075     0.31107     0.76653   322.67774     0.31092
     0.90000     2.46023   335.19402     0.31112     0.88650   330.63583     0.31096
     1.00000     2.62614   336.03780     0.31118     1.01986   336.61076     0.31100
     1.10000     2.81347   336.83060     0.31126     1.17847   341.68442     0.31106
     1.20000     2.98223   337.48626     0.31134     1.32788   345.12339     0.31112
     1.30000     3.15231   338.07351     0.31141     1.48177   347.85691     0.31118
     1.40000     3.34438   338.63292     0.31151     1.65714   350.34660     0.31126
     1.50000     3.51732   339.10822     0.31160     1.81765   352.12425     0.31133
     1.60000     3.69164   339.54109     0.31170     1.98046   353.60971     0.31141
     1.70000     3.88869   339.95729     0.31181     2.16442   355.03616     0.31151
     1.80000     4.06607   340.31876     0.31192     2.33140   356.08886     0.31160
     1.90000     4.24493   340.65230     0.31203     2.50010   356.99794     0.31169
     2.00000     4.44739   340.97519     0.31216     2.69042   357.90370     0.31181
     2.10000     4.62959   341.26075     0.31228     2.86263   358.58522     0.31191
     2.20000     4.83605   341.53828     0.31243     3.05698   359.27730     0.31204
     2.30000     5.02180   341.78631     0.31256     3.23261   359.80225     0.31216
     2.40000     5.23251   342.02823     0.31272     3.43098     0.34377     0.31230
     2.50000     5.42203   342.24643     0.31286     3.61010     0.75663     0.31243
     2.60000     5.63726   342.45998     0.31303     3.81262     1.18819     0.31258
     2.70000     5.83076   342.65412     0.31318     3.99535     1.51817     0.31271
     2.80000     6.05077   342.84478     0.31336     4.20220     1.86705     0.31288
     2.90000     6.27346   343.02542     0.31354     4.41147     2.17988     0.31305
     3.00000     6.47353   343.19125     0.31370     4.60011     2.41931     0.31320
     3.10000     6.70141   343.35499     0.31390     4.81406     2.67623     0.31338
     3.20000     6.93219   343.51128     0.31410     5.03065     2.90816     0.31357
     3.30000     7.13935   343.65582     0.31427     5.22569     3.08526     0.31373
     3.40000     7.37570   343.79934     0.31448     5.44735     3.27774     0.31393
     3.50000     7.61516   343.93720     0.31470     5.67185     3.45222     0.31413
     3.60000     7.85779   344.06986     0.31492     5.89928     3.61054     0.31434
     3.70000     8.10367   344.19776     0.31514     6.12971     3.75429     0.31455
     3.80000     8.35287   344.32127     0.31537     6.36321     3.88488     0.31476
     3.90000     8.60544   344.44074     0.31560     6.59987     4.00356     0.31498
     4.00000     8.86147   344.55647     0.31583     6.83976     4.11143     0.31521
     4.10000     9.15142   344.67300     0.31611     7.11081     4.22667     0.31547
     4.20000     9.41504   344.78201     0.31635     7.35789     4.31446     0.31571
     4.30000     9.68230   344.88804     0.31660     7.60843     4.39417     0.31594
     4.40000     9.98536   344.99553     0.31689     7.89198     4.48005     0.31622
     4.50000    10.26062   345.09613     0.31714     8.15021     4.54462     0.31647
     4.60000    10.57298   345.19859     0.31743     8.44275     4.61459     0.31675
     4.70000    10.85650   345.29441     0.31769     8.70899     4.66661     0.31700
     4.80000    11.17844   345.39243     0.31799     9.01090     4.72332     0.31730
     4.90000    11.50561   345.48842     0.31830     9.31795     4.77384     0.31759
     5.00000    11.83806   345.58250     0.31860     9.63024     4.81871     0.31789
     5.10000    12.17587   345.67475     0.31891     9.94786     4.85846     0.31820
     5.20000    12.51909   345.76527     0.31922    10.27092     4.89355     0.31850
     5.30000    12.86779   345.85410     0.31953    10.59949     4.92439     0.31881
     5.40000    13.26073   345.94597     0.31989    10.96973     4.95707     0.31916
     5.50000    13.62124   346.03166     0.32020    11.31032     4.98006     0.31947
     5.60000    14.02761   346.12055     0.32056    11.69432     5.00463     0.31982
     5.70000    14.44118   346.20803     0.32091    12.08577     5.02550     0.32018
     5.80000    14.86201   346.29411     0.32127    12.48478     5.04306     0.32054
     5.90000    15.29014   346.37882     0.32163    12.89144     5.05767     0.32089
     6.00000    15.76922   346.46699     0.32203    13.34705     5.07272     0.32129
     6.10000    16.25743   346.55384     0.32243    13.81237     5.08481     0.32169
     6.20000    16.75479   346.63935     0.32283    14.28752     5.09433     0.32209
     6.30000    17.26132   346.72350     0.32322    14.77260     5.10161     0.32249
     6.40000    17.82446   346.81116     0.32365    15.31303     5.10889     0.32292
     6.50000    18.39872   346.89742     0.32408    15.86572     5.11412     0.32335
     6.60000    19.03365   346.98710     0.32455    16.47848     5.11916     0.32382
     6.70000    19.68175   347.07523     0.32501    17.10609     5.12251     0.32429
     6.80000    20.39483   347.16660     0.32550    17.79895     5.12572     0.32479
     6.90000    87.72240   350.63788     0.33382    92.27760     9.36212     0.33382
     7.00000    87.72319   350.64106     0.33384    92.27681     9.35894     0.33384
     7.10000    87.72398   350.64423     0.33386    92.27602     9.35577     0.33386
     7.20000    87.72477   350.64741     0.33389    92.27523     9.35259     0.33389
     7.30000    87.72556   350.65058     0.33391    92.27444     9.34942     0.33391
     7.40000    87.72634   350.65375     0.33393    92.27366     9.34625     0.33393
     7.50000    87.72713   350.65693     0.33395    92.27287     9.34307     0.33395
     7.60000    87.72792   350.66010     0.33397    92.27208     9.33990     0.33397
     7.70000    87.72871   350.66327     0.33399    92.27129     9.33673     0.33399
     7.80000    87.72950   350.66643     0.33401    92.27050     9.33357     0.33401
     7.90000    87.73028   350.66960     0.33404    92.26972     9.33040     0.33404
     8.00000    87.73107   350.67277     0.33406    92.26893     9.32723     0.33406
     8.10000    87.73186   350.67593     0.33408    92.26814     9.32407     0.33408
     8.20000    87.73264   350.67910     0.33410    92.26736     9.32090     0.33410
     8.30000    87.73343   350.68226     0.33412    92.26657     9.31774     0.33412
     8.40000    87.73422   350.68542     0.33414    92.26578     9.31458     0.33414
     8.50000    87.73500   350.68858     0.33416    92.26500     9.31142     0.33416
     8.60000    87.73579   350.69175     0.33419    92.26421     9.30825     0.33419
     8.70000    87.73657   350.69490     0.33421    92.26343     9.30510     0.33421
     8.80000    87.73736   350.69806     0.33423    92.26264     9.30194     0.33423
     8.90000    87.73814   350.70122     0.33425    92.26186     9.29878     0.33425
     9.00000    87.73893   350.70438     0.33427    92.26107     9.29562     0.33427
     9.10000    87.73971   350.70753     0.33429    92.26029     9.29247     0.33429
     9.20000    87.74049   350.71069     0.33431    92.25951     9.28931     0.33431
     9.30000    87.74128   350.71384     0.33433    92.25872     9.28616     0.33433
     9.40000    87.74206   350.71699     0.33436    92.25794     9.28301     0.33436
     9.50000    87.74284   350.72014     0.33438    92.25716     9.27986     0.33438
     9.60000    87.74363   350.72329     0.33440    92.25637     9.27671     0.33440
     9.70000    87.74441   350.72644     0.33442    92.25559     9.27356     0.33442
     9.80000    87.74519   350.72959     0.33444    92.25481     9.27041     0.33444
     9.90000    87.74597   350.73274     0.33446    92.25403     9.26726     0.33446
    10.00000    87.74676   350.73588     0.33448    92.25324     9.26412     0.33448
    10.10000    87.74754   350.73903     0.33451    92.25246     9.26097     0.33451
    10.20000    87.74832   350.74217     0.33453    92.25168     9.25783     0.33453
    10.30000    87.74910   350.74531     0.33455    92.25090     9.25469     0.33455
    10.40000    87.74988   350.74846     0.33457    92.25012     9.25154     0.33457
    10.50000    87.75066   350.75160     0.33459    92.24934     9.24840     0.33459
    10.60000    87.75144   350.75474     0.33461    92.24856     9.24526     0.33461
    10.70000    87.75222   350.75788     0.33464    92.24778     9.24212     0.33464
    10.80000    87.75300   350.76101     0.33466    92.24700     9.23899     0.33466
    10.90000    87.75378   350.76415     0.33468    92.24622     9.23585     0.33468
    11.00000    87.75456   350.76729     0.33470    92.24544     9.23271     0.33470
    11.10000    87.75534   350.77042     0.33472    92.24466     9.22958     0.33472
    11.20000    87.75612   350.77355     0.33474    92.24388     9.22645     0.33474
    11.30000    87.75690   350.77669     0.33476    92.24310     9.22331     0.33476
    11.40000    87.75768   350.77982     0.33479    92.24232     9.22018     0.33479
    11.50000    87.75845   350.78295     0.33481    92.24155     9.21705     0.33481
    11.60000    87.75923   350.78608     0.33483    92.24077     9.21392     0.33483
    11.70000    87.76001   350.78921     0.33485    92.23999     9.21079     0.33485
    11.80000    87.76079   350.79234     0.33487    92.23921     9.20766     0.33487
    11.90000    87.76156   350.79546     0.33489    92.23844     9.20454     0.33489
    12.00000    87.76234   350.79859     0.33491    92.23766     9.20141     0.33491
    12.10000    87.76312   350.80171     0.33494    92.23688     9.19829     0.33494
    12.20000    87.76389   350.80484     0.33496    92.23611     9.19516     0.33496
    12.30000    87.76467   350.80796     0.33498    92.23533     9.19204     0.33498
    12.40000    87.76544   350.81108     0.33500    92.23456     9.18892     0.33500
    12.50000    87.76622   350.81420     0.33502    92.23378     9.18580     0.33502
    12.60000    87.76699   350.81732     0.33504    92.23301     9.18268     0.33504
    12.70000    87.76777   350.82044     0.33507    92.23223     9.17956     0.33507
    12.80000    87.76854   350.82356     0.33509    92.23146     9.17644     0.33509
    12.90000    87.76932   350.82667     0.33511    92.23068     9.17333     0.33511
    13.00000    87.77009   350.82979     0.33513    92.22991     9.17021     0.33513
    13.10000    87.77087   350.83290     0.33515    92.22913     9.16710     0.33515
    13.20000    87.77164   350.83602     0.33517    92.22836     9.16398     0.33517
    13.30000    87.77241   350.83913     0.33520    92.22759     9.16087     0.33520
    13.40000    87.77319   350.84224     0.33522    92.22681     9.15776     0.33522
    13.50000    87.77396   350.84535     0.33524    92.22604     9.15465     0.33524
    13.60000    87.77473   350.84846     0.33526    92.22527     9.15154     0.33526
    13.70000    87.77551   350.85157     0.33528    92.22449     9.14843     0.33528
    13.80000    87.77628   350.85468     0.33530    92.22372     9.14532     0.33530
    13.90000    87.77705   350.85778     0.33532    92.22295     9.14222     0.33532
    14.00000    87.77782   350.86089     0.33535    92.22218     9.13911     0.33535
    14.10000    87.77859   350.86399     0.33537    92.22141     9.13601     0.33537
    14.20000    87.77936   350.86710     0.33539    92.22064     9.13290     0.33539
    14.30000    87.78013   350.87020     0.33541    92.21987     9.12980     0.33541
    14.40000    87.78091   350.87330     0.33543    92.21909     9.12670     0.33543
    14.50000    87.78168   350.87640     0.33545    92.21832     9.12360     0.33545
    14.60000    87.78245   350.87950     0.33548    92.21755     9.12050     0.33548
    14.70000    87.78322   350.88260     0.33550    92.21678     9.11740     0.33550
    14.80000    87.78399   350.88570     0.33552    92.21601     9.11430     0.33552
    14.90000    87.78475   350.88879     0.33554    92.21525     9.11121     0.33554
    15.00000    87.78552   350.89189     0.33556    92.21448     9.10811     0.33556
    15.10000    87.78629   350.89498     0.33558    92.21371     9.10502     0.33558
    15.20000    87.78706   350.89808     0.33561    92.21294     9.10192     0.33561
    15.30000    87.78783   350.90117     0.33563    92.21217     9.09883     0.33563
    15.40000    87.78860   350.90426     0.33565    92.21140     9.09574     0.33565
    15.50000    87.78937   350.90735     0.33567    92.21063     9.09265     0.33567
    15.60000    87.79013   350.91044     0.33569    92.20987     9.08956     0.33569
    15.70000    87.79090   350.91353     0.33571    92.20910     9.08647     0.33571
    15.80000    87.79167   350.91662     0.33574    92.20833     9.08338     0.33574
    15.90000    87.79243   350.91971     0.33576    92.20757     9.08029     0.33576
    16.00000    87.79320   350.92279     0.33578    92.20680     9.07721     0.33578
    16.10000    87.79397   350.92588     0.33580    92.20603     9.07412     0.33580
    16.20000    87.79473   350.92896     0.33582    92.20527     9.07104     0.33582
    16.30000    87.79550   350.93204     0.33584    92.20450     9.06796     0.33584
    16.40000    87.79626   350.93512     0.33587    92.20374     9.06488     0.33587
    16.50000    87.79703   350.93820     0.33589    92.20297     9.06180     0.33589
    16.60000    87.79780   350.94128     0.33591    92.20220     9.05872     0.33591
    16.70000    87.79856   350.94436     0.33593    92.20144     9.05564     0.33593
    16.80000    87.79932   350.94744     0.33595    92.20068     9.05256     0.33595
    16.90000    87.80009   350.95052     0.33598    92.19991     9.04948     0.33598
    17.00000    87.80085   350.95359     0.33600    92.19915     9.04641     0.33600
    17.10000    87.80162   350.95667     0.33602    92.19838     9.04333     0.33602
    17.20000    87.80238   350.95974     0.33604    92.19762     9.04026     0.33604
    17.30000    87.80314   350.96281     0.33606    92.19686     9.03719     0.33606
    17.40000    87.80391   350.96588     0.33608    92.19609     9.03412     0.33608
    17.50000    87.80467   350.96896     0.33611    92.19533     9.03104     0.33611
    17.60000    87.80543   350.97202     0.33613    92.19457     9.02798     0.33613
    17.70000    87.80619   350.97509     0.33615    92.19381     9.02491     0.33615
    17.80000    87.80696   350.97816     0.33617    92.19304     9.02184     0.33617
    17.90000    87.80772   350.98123     0.33619    92.19228     9.01877     0.33619
    18.00000    87.80848   350.98429     0.33621    92.19152     9.01571     0.33621
    18.10000    87.80924   350.98736     0.33624    92.19076     9.01264     0.33624
    18.20000    87.81000   350.99042     0.33626    92.19000     9.00958     0.33626
    18.30000    87.81076   350.99349     0.33628    92.18924     9.00651     0.33628
    18.40000    87.81152   350.99655     0.33630    92.18848     9.00345     0.33630
    18.50000    87.81228   350.99961     0.33632    92.18772     9.00039     0.33632
    18.60000    87.81304   351.00267     0.33635    92.18696     8.99733     0.33635
    18.70000    87.81380   351.00573     0.33637    92.18620     8.99427     0.33637
    18.80000    87.81456   351.00878     0.33639    92.18544     8.99122     0.33639
    18.90000    87.81532   351.01184     0.33641    92.18468     8.98816     0.33641
    19.00000    87.81608   351.01490     0.33643    92.18392     8.98510     0.33643
    19.10000    87.81684   351.01795     0.33645    92.18316     8.98205     0.33645
    19.20000    87.81760   351.02101     0.33648    92.18240     8.97899     0.33648
    19.30000    87.81836   351.02406     0.33650    92.18164     8.97594     0.33650
    19.40000    87.81912   351.02711     0.33652    92.18088     8.97289     0.33652
    19.50000    87.81987   351.03016     0.33654    92.18013     8.96984     0.33654
    19.60000    87.82063   351.03321     0.33656    92.17937     8.96679     0.33656
    19.70000    87.82139   351.03626     0.33659    92.17861     8.96374     0.33659
    19.80000    87.82215   351.03931     0.33661    92.17785     8.96069     0.33661
    19.90000    87.82290   351.04236     0.33663    92.17710     8.95764     0.33663
    20.00000    87.82366   351.04540     0.33665    92.17634     8.95460     0.33665
    20.10000    87.82442   351.04845     0.33667    92.17558     8.95155     0.33667
    20.20000    87.82517   351.05149     0.33670    92.17483     8.94851     0.33670
    20.30000    87.82593   351.05454     0.33672    92.17407     8.94546     0.33672
    20.40000    87.82668   351.05758     0.33674    92.17332     8.94242     0.33674
    20.50000    87.82744   351.06062     0.33676    92.17256     8.93938     0.33676
    20.60000    87.82820   351.06366     0.33678    92.17180     8.93634     0.33678
    20.70000    87.82895   351.06670     0.33680    92.17105     8.93330     0.33680
    20.80000    87.82970   351.06974     0.33683    92.17030     8.93026     0.33683
    20.90000    87.83046   351.07278     0.33685    92.16954     8.92722     0.33685
    21.00000    87.83121   351.07581     0.33687    92.16879     8.92419     0.33687
    21.10000    87.83197   351.07885     0.33689    92.16803     8.92115     0.33689
    21.20000    87.83272   351.08188     0.33691    92.16728     8.91812     0.33691
    21.30000    87.83347   351.08492     0.33694    92.16653     8.91508     0.33694
    21.40000    87.83423   351.08795     0.33696    92.16577     8.91205     0.33696
    21.50000    87.83498   351.09098     0.33698    92.16502     8.90902     0.33698
    21.60000    87.83573   351.09401     0.33700    92.16427     8.90599     0.33700
    21.70000    87.83649   351.09704     0.33702    92.16351     8.90296     0.33702
    21.80000    87.83724   351.10007     0.33705    92.16276     8.89993     0.33705
    21.90000    87.83799   351.10310     0.33707    92.16201     8.89690     0.33707
    22.00000    87.83874   351.10612     0.33709    92.16126     8.89388     0.33709
    22.10000    87.83949   351.10915     0.33711    92.16051     8.89085     0.33711
    22.20000    87.84024   351.11217     0.33713    92.15976     8.88783     0.33713
    22.30000    87.84100   351.11520     0.33716    92.15900     8.88480     0.33716
    22.40000    87.84175   351.11822     0.33718    92.15825     8.88178     0.33718
    22.50000    87.84250   351.12124     0.33720    92.15750     8.87876     0.33720
    22.60000    87.84325   351.12426     0.33722    92.15675     8.87574     0.33722
    22.70000    87.84400   351.12728     0.33724    92.15600     8.87272     0.33724
    22.80000    87.84475   351.13030     0.33727    92.15525     8.86970     0.33727
    22.90000    87.84550   351.13332     0.33729    92.15450     8.86668     0.33729
    23.00000    87.84625   351.13634     0.33731    92.15375     8.86366     0.33731
    23.10000    87.84700   351.13935     0.33733    92.15300     8.86065     0.33733
    23.20000    87.84774   351.14237     0.33735    92.15226     8.85763     0.33735
    23.30000    87.84849   351.14538     0.33738    92.15151     8.85462     0.33738
    23.40000    87.84924   351.14840     0.33740    92.15076     8.85160     0.33740
    23.50000    87.84999   351.15141     0.33742    92.15001     8.84859     0.33742
    23.60000    87.85074   351.15442     0.33744    92.14926     8.84558     0.33744
    23.70000    87.85148   351.15743     0.33746    92.14852     8.84257     0.33746
    23.80000    87.85223   351.16044     0.33749    92.14777     8.83956     0.33749
    23.90000    87.85298   351.16345     0.33751    92.14702     8.83655     0.33751
    24.00000    87.85373   351.16646     0.33753    92.14627     8.83354     0.33753
    24.10000    87.85447   351.16946     0.33755    92.14553     8.83054     0.33755
    24.20000    87.85522   351.17247     0.33757    92.14478     8.82753     0.33757
    24.30000    87.85596   351.17547     0.33760    92.14404     8.82453     0.33760
    24.40000    87.85671   351.17848     0.33762    92.14329     8.82152     0.33762
    24.50000    87.85746   351.18148     0.33764    92.14254     8.81852     0.33764
    24.60000    87.85820   351.18448     0.33766    92.14180     8.81552     0.33766
    24.70000    87.85895   351.18748     0.33768    92.14105     8.81252     0.33768
    24.80000    87.85969   351.19048     0.33771    92.14031     8.80952     0.33771
    24.90000    87.86044   351.19348     0.33773    92.13956     8.80652     0.33773
    25.00000    87.86118   351.19648     0.33775    92.13882     8.80352     0.33775
    25.10000    87.86193   351.19947     0.33777    92.13807     8.80053     0.33777
    25.20000    87.86267   351.20247     0.33779    92.13733     8.79753     0.33779
    25.30000    87.86341   351.20547     0.33782    92.13659     8.79453     0.33782
    25.40000    87.86416   351.20846     0.33784    92.13584     8.79154     0.33784
    25.50000    87.86490   351.21145     0.33786    92.13510     8.78855     0.33786
    25.60000    87.86564   351.21444     0.33788    92.13436     8.78556     0.33788
    25.70000    87.86639   351.21744     0.33791    92.13361     8.78256     0.33791
    25.80000    87.86713   351.22043     0.33793    92.13287     8.77957     0.33793
    25.90000    87.86787   351.22342     0.33795    92.13213     8.77658     0.33795
    26.00000    87.86861   351.22640     0.33797    92.13139     8.77360     0.33797
    26.10000    87.86935   351.22939     0.33799    92.13065     8.77061     0.33799
    26.20000    87.87010   351.23238     0.33802    92.12990     8.76762     0.33802
    26.30000    87.87084   351.23536     0.33804    92.12916     8.76464     0.33804
    26.40000    87.87158   351.23835     0.33806    92.12842     8.76165     0.33806
    26.50000    87.87232   351.24133     0.33808    92.12768     8.75867     0.33808
    26.60000    87.87306   351.24431     0.33810    92.12694     8.75569     0.33810
    26.70000    87.87380   351.24730     0.33813    92.12620     8.75270     0.33813
    26.80000    87.87454   351.25028     0.33815    92.12546     8.74972     0.33815
    26.90000    87.87528   351.25326     0.33817    92.12472     8.74674     0.33817
    27.00000    87.87602   351.25624     0.33819    92.12398     8.74376     0.33819
    27.10000    87.87676   351.25921     0.33822    92.12324     8.74079     0.33822
    27.20000    87.87750   351.26219     0.33824    92.12250     8.73781     0.33824
    27.30000    87.87824   351.26517     0.33826    92.12176     8.73483     0.33826
    27.40000    87.87898   351.26814     0.33828    92.12102     8.73186     0.33828
    27.50000    87.87971   351.27112     0.33830    92.12029     8.72888     0.33830
    27.60000    87.88045   351.27409     0.33833    92.11955     8.72591     0.33833
    27.70000    87.88119   351.27706     0.33835    92.11881     8.72294     0.33835
    27.80000    87.88193   351.28003     0.33837    92.11807     8.71997     0.33837
    27.90000    87.88267   351.28300     0.33839    92.11733     8.71700     0.33839
    28.00000    87.88340   351.28597     0.33841    92.11660     8.71403     0.33841
    28.10000    87.88414   351.28894     0.33844    92.11586     8.71106     0.33844
    28.20000    87.88488   351.29191     0.33846    92.11512     8.70809     0.33846
    28.30000    87.88561   351.29488     0.33848    92.11439     8.70512     0.33848
    28.40000    87.88635   351.29784     0.33850    92.11365     8.70216     0.33850
    28.50000    87.88709   351.30081     0.33853    92.11291     8.69919     0.33853
    28.60000    87.88782   351.30377     0.33855    92.11218     8.69623     0.33855
    28.70000    87.88856   351.30673     0.33857    92.11144     8.69327     0.33857
    28.80000    87.88929   351.30969     0.33859    92.11071     8.69031     0.33859
    28.90000    87.89003   351.31266     0.33862    92.10997     8.68734     0.33862
    29.00000    87.89076   351.31562     0.33864    92.10924     8.68438     0.33864
    29.10000    87.89150   351.31858     0.33866    92.10850     8.68142     0.33866
    29.20000    87.89223   351.32153     0.33868    92.10777     8.67847     0.33868
    29.30000    87.89297   351.32449     0.33870    92.10703     8.67551     0.33870
    29.40000    87.89370   351.32745     0.33873    92.10630     8.67255     0.33873
    29.50000    87.89443   351.33040     0.33875    92.10557     8.66960     0.33875
    29.60000    87.89517   351.33336     0.33877    92.10483     8.66664     0.33877
    29.70000    87.89590   351.33631     0.33879    92.10410     8.66369     0.33879
    29.80000    87.89663   351.33926     0.33882    92.10337     8.66074     0.33882
    29.90000    87.89737   351.34221     0.33884    92.10263     8.65779     0.33884
    30.00000    87.89810   351.34517     0.33886    92.10190     8.65483     0.33886
    30.10000    87.89883   351.34812     0.33888    92.10117     8.65188     0.33888
    30.20000    87.89956   351.35106     0.33890    92.10044     8.64894     0.33890
    30.30000    87.90030   351.35401     0.33893    92.09970     8.64599     0.33893
    30.40000    87.90103   351.35696     0.33895    92.09897     8.64304     0.33895
    30.50000    87.90176   351.35990     0.33897    92.09824     8.64010     0.33897
    30.60000    87.90249   351.36285     0.33899    92.09751     8.63715     0.33899
    30.70000    87.90322   351.36579     0.33902    92.09678     8.63421     0.33902
    30.80000    87.90395   351.36874     0.33904    92.09605     8.63126     0.33904
    30.90000    87.90468   351.37168     0.33906    92.09532     8.62832     0.33906
    31.00000    87.90541   351.37462     0.33908    92.09459     8.62538     0.33908
    31.10000    87.90614   351.37756     0.33911    92.09386     8.62244     0.33911
    31.20000    87.90687   351.38050     0.33913    92.09313     8.61950     0.33913
    31.30000    87.90760   351.38344     0.33915    92.09240     8.61656     0.33915
    31.40000    87.90833   351.38638     0.33917    92.09167     8.61362     0.33917
    31.50000    87.90906   351.38931     0.33919    92.09094     8.61069     0.33919
    31.60000    87.90979   351.39225     0.33922    92.09021     8.60775     0.33922
    31.70000    87.91052   351.39519     0.33924    92.08948     8.60481     0.33924
    31.80000    87.91124   351.39812     0.33926    92.08876     8.60188     0.33926
    31.90000    87.91197   351.40105     0.33928    92.08803     8.59895     0.33928
    32.00000    87.91270   351.40398     0.33931    92.08730     8.59602     0.33931
    32.10000    87.91343   351.40692     0.33933    92.08657     8.59308     0.33933
    32.20000    87.91416   351.40985     0.33935    92.08584     8.59015     0.33935
    32.30000    87.91488   351.41278     0.33937    92.08512     8.58722     0.33937
    32.40000    87.91561   351.41570     0.33940    92.08439     8.58430     0.33940
    32.50000    87.91634   351.41863     0.33942    92.08366     8.58137     0.33942
    32.60000    87.91706   351.42156     0.33944    92.08294     8.57844     0.33944
    32.70000    87.91779   351.42448     0.33946    92.08221     8.57552     0.33946
    32.80000    87.91851   351.42741     0.33949    92.08149     8.57259     0.33949
    32.90000    87.91924   351.43033     0.33951    92.08076     8.56967     0.33951
    33.00000    87.91997   351.43325     0.33953    92.08003     8.56675     0.33953
    33.10000    87.92069   351.43618     0.33955    92.07931     8.56382     0.33955
    33.20000    87.92142   351.43910     0.33958    92.07858     8.56090     0.33958
    33.30000    87.92214   351.44202     0.33960    92.07786     8.55798     0.33960
    33.40000    87.92287   351.44494     0.33962    92.07713     8.55506     0.33962
    33.50000    87.92359   351.44786     0.33964    92.07641     8.55214     0.33964
    33.60000    87.92431   351.45077     0.33967    92.07569     8.54923     0.33967
    33.70000    87.92504   351.45369     0.33969    92.07496     8.54631     0.33969
    33.80000    87.92576   351.45660     0.33971    92.07424     8.54340     0.33971
    33.90000    87.92648   351.45952     0.33973    92.07352     8.54048     0.33973
    34.00000    87.92721   351.46243     0.33976    92.07279     8.53757     0.33976
    34.10000    87.92793   351.46535     0.33978    92.07207     8.53465     0.33978
    34.20000    87.92865   351.46826     0.33980    92.07135     8.53174     0.33980
    34.30000    87.92938   351.47117     0.33982    92.07062     8.52883     0.33982
    34.40000    87.93010   351.47408     0.33985    92.06990     8.52592     0.33985
    34.50000    87.93082   351.47699     0.33987    92.06918     8.52301     0.33987
    34.60000    87.93154   351.47990     0.33989    92.06846     8.52010     0.33989
    34.70000    87.93226   351.48280     0.33991    92.06774     8.51720     0.33991
    34.80000    87.93298   351.48571     0.33994    92.06702     8.51429     0.33994
    34.90000    87.93371   351.48862     0.33996    92.06629     8.51138     0.33996
    35.00000    87.93443   351.49152     0.33998    92.06557     8.50848     0.33998
    35.10000    87.93515   351.49442     0.34000    92.06485     8.50558     0.34000
    35.20000    87.93587   351.49733     0.34003    92.06413     8.50267     0.34003
    35.30000    87.93659   351.50023     0.34005    92.06341     8.49977     0.34005
    35.40000    87.93731   351.50313     0.34007    92.06269     8.49687     0.34007
    35.50000    87.93803   351.50603     0.34009    92.06197     8.49397     0.34009
    35.60000    87.93875   351.50893     0.34012    92.06125     8.49107     0.34012
    35.70000    87.93947   351.51183     0.34014    92.06053     8.48817     0.34014
    35.80000    87.94019   351.51472     0.34016    92.05981     8.48528     0.34016
    35.90000    87.94090   351.51762     0.34018    92.05910     8.48238     0.34018
    36.00000    87.94162   351.52052     0.34021    92.05838     8.47948     0.34021
    36.10000    87.94234   351.52341     0.34023    92.05766     8.47659     0.34023
    36.20000    87.94306   351.52630     0.34025    92.05694     8.47370     0.34025
    36.30000    87.94378   351.52920     0.34027    92.05622     8.47080     0.34027
    36.40000    87.94449   351.53209     0.34030    92.05551     8.46791     0.34030
    36.50000    87.94521   351.53498     0.34032    92.05479     8.46502     0.34032
    36.60000    87.94593   351.53787     0.34034    92.05407     8.46213     0.34034
    36.70000    87.94665   351.54076     0.34036    92.05335     8.45924     0.34036
    36.80000    87.94736   351.54365     0.34039    92.05264     8.45635     0.34039
    36.90000    87.94808   351.54653     0.34041    92.05192     8.45347     0.34041
    37.00000    87.94880   351.54942     0.34043    92.05120     8.45058     0.34043
    37.10000    87.94951   351.55231     0.34045    92.05049     8.44769     0.34045
    37.20000    87.95023   351.55519     0.34048    92.04977     8.44481     0.34048
    37.30000    87.95094   351.55807     0.34050    92.04906     8.44193     0.34050
    37.40000    87.95166   351.56096     0.34052    92.04834     8.43904     0.34052
    37.50000    87.95237   351.56384     0.34054    92.04763     8.43616     0.34054
    37.60000    87.95309   351.56672     0.34057    92.04691     8.43328     0.34057
    37.70000    87.95380   351.56960     0.34059    92.04620     8.43040     0.34059
    37.80000    87.95452   351.57248     0.34061    92.04548     8.42752     0.34061
    37.90000    87.95523   351.57536     0.34063    92.04477     8.42464     0.34063
    38.00000    87.95595   351.57823     0.34066    92.04405     8.42177     0.34066
    38.10000    87.95666   351.58111     0.34068    92.04334     8.41889     0.34068
    38.20000    87.95737   351.58399     0.34070    92.04263     8.41601     0.34070
    38.30000    87.95809   351.58686     0.34073    92.04191     8.41314     0.34073
    38.40000    87.95880   351.58973     0.34075    92.04120     8.41027     0.34075
    38.50000    87.95951   351.59261     0.34077    92.04049     8.40739     0.34077
    38.60000    87.96022   351.59548     0.34079    92.03978     8.40452     0.34079
    38.70000    87.96094   351.59835     0.34082    92.03906     8.40165     0.34082
    38.80000    87.96165   351.60122     0.34084    92.03835     8.39878     0.34084
    38.90000    87.96236   351.60409     0.34086    92.03764     8.39591     0.34086
    39.00000    87.96307   351.60696     0.34088    92.03693     8.39304     0.34088
    39.10000    87.96378   351.60983     0.34091    92.03622     8.39017     0.34091
    39.20000    87.96450   351.61269     0.34093    92.03550     8.38731     0.34093
    39.30000    87.96521   351.61556     0.34095    92.03479     8.38444     0.34095
    39.40000    87.96592   351.61842     0.34097    92.03408     8.38158     0.34097
    39.50000    87.96663   351.62129     0.34100    92.03337     8.37871     0.34100
    39.60000    87.96734   351.62415     0.34102    92.03266     8.37585     0.34102
    39.70000    87.96805   351.62701     0.34104    92.03195     8.37299     0.34104
    39.80000    87.96876   351.62987     0.34107    92.03124     8.37013     0.34107
    39.90000    87.96947   351.63273     0.34109    92.03053     8.36727     0.34109
    40.00000    87.97018   351.63559     0.34111    92.02982     8.36441     0.34111
