 # applied field (T), theta (degree), phi (degree), abs for RE 3-4
     0.00000    90.00000   219.60987     3.66942    90.00000   230.39013     3.66942
     0.10000    90.00000   219.60969     3.66941    90.00000   230.39031     3.66941
     0.20000    90.00000   219.60951     3.66941    90.00000   230.39049     3.66941
     0.30000    90.00000   219.60934     3.66940    90.00000   230.39066     3.66940
     0.40000    90.00000   219.60916     3.66940    90.00000   230.39084     3.66940
     0.50000    90.00000   219.60899     3.66939    90.00000   230.39101     3.66939
     0.60000    90.00000   219.60881     3.66939    90.00000   230.39119     3.66939
     0.70000    90.00000   219.60863     3.66938    90.00000   230.39137     3.66938
     0.80000    90.00000   219.60846     3.66938    90.00000   230.39154     3.66938
     0.90000    90.00000   219.60828     3.66937    90.00000   230.39172     3.66937
     1.00000    90.00000   219.60810     3.66937    90.00000   230.39190     3.66937
     1.10000    90.00000   219.60793     3.66936    90.00000   230.39207     3.66936
     1.20000    90.00000   219.60775     3.66936    90.00000   230.39225     3.66936
     1.30000    90.00000   219.60758     3.66935    90.00000   230.39242     3.66935
     1.40000    90.00000   219.60740     3.66935    90.00000   230.39260     3.66935
     1.50000    90.00000   219.60722     3.66934    90.00000   230.39278     3.66934
     1.60000    90.00000   219.60705     3.66934    90.00000   230.39295     3.66934
     1.70000    90.00000   219.60687     3.66933    90.00000   230.39313     3.66933
     1.80000    90.00000   219.60669     3.66933    90.00000   230.39331     3.66933
     1.90000    90.00000   219.60652     3.66932    90.00000   230.39348     3.66932
     2.00000    90.00000   219.60634     3.66932    90.00000   230.39366     3.66932
     2.10000    90.00000   219.60617     3.66931    90.00000   230.39383     3.66931
     2.20000    90.00000   219.60599     3.66931    90.00000   230.39401     3.66931
     2.30000    90.00000   219.60581     3.66930    90.00000   230.39419     3.66930
     2.40000    90.00000   219.60564     3.66930    90.00000   230.39436     3.66930
     2.50000    90.00000   219.60546     3.66929    90.00000   230.39454     3.66929
     2.60000    90.00000   219.60528     3.66928    90.00000   230.39472     3.66928
     2.70000    90.00000   219.60511     3.66928    90.00000   230.39489     3.66928
     2.80000    90.00000   219.60493     3.66927    90.00000   230.39507     3.66927
     2.90000    90.00000   219.60476     3.66927    90.00000   230.39524     3.66927
     3.00000    90.00000   219.60458     3.66926    90.00000   230.39542     3.66926
     3.10000    90.00000   219.60440     3.66926    90.00000   230.39560     3.66926
     3.20000    90.00000   219.60423     3.66925    90.00000   230.39577     3.66925
     3.30000    90.00000   219.60405     3.66925    90.00000   230.39595     3.66925
     3.40000    90.00000   219.60387     3.66924    90.00000   230.39613     3.66924
     3.50000    90.00000   219.60370     3.66923    90.00000   230.39630     3.66923
     3.60000    90.00000   219.60352     3.66923    90.00000   230.39648     3.66923
     3.70000    90.00000   219.60334     3.66922    90.00000   230.39666     3.66922
     3.80000    90.00000   219.60317     3.66922    90.00000   230.39683     3.66922
     3.90000    90.00000   219.60299     3.66921    90.00000   230.39701     3.66921
     4.00000    90.00000   219.60281     3.66921    90.00000   230.39719     3.66921
     4.10000    90.00000   219.60264     3.66920    90.00000   230.39736     3.66920
     4.20000    90.00000   219.60246     3.66920    90.00000   230.39754     3.66920
     4.30000    90.00000   219.60228     3.66919    90.00000   230.39772     3.66919
     4.40000    90.00000   219.60211     3.66918    90.00000   230.39789     3.66918
     4.50000    90.00000   219.60193     3.66918    90.00000   230.39807     3.66918
     4.60000    90.00000   219.60175     3.66917    90.00000   230.39825     3.66917
     4.70000    90.00000   219.60158     3.66917    90.00000   230.39842     3.66917
     4.80000    90.00000   219.60140     3.66916    90.00000   230.39860     3.66916
     4.90000    90.00000   219.60122     3.66915    90.00000   230.39878     3.66915
     5.00000    90.00000   219.60105     3.66915    90.00000   230.39895     3.66915
     5.10000    90.00000   219.60087     3.66914    90.00000   230.39913     3.66914
     5.20000    90.00000   219.60069     3.66914    90.00000   230.39931     3.66914
     5.30000    90.00000   219.60052     3.66913    90.00000   230.39948     3.66913
     5.40000    90.00000   219.60034     3.66913    90.00000   230.39966     3.66913
     5.50000    90.00000   219.60016     3.66912    90.00000   230.39984     3.66912
     5.60000    90.00000   219.59999     3.66911    90.00000   230.40001     3.66911
     5.70000    90.00000   219.59981     3.66911    90.00000   230.40019     3.66911
     5.80000    90.00000   219.59963     3.66910    90.00000   230.40037     3.66910
     5.90000    90.00000   219.59946     3.66910    90.00000   230.40054     3.66910
     6.00000    90.00000   219.59928     3.66909    90.00000   230.40072     3.66909
     6.10000    90.00000   219.59910     3.66908    90.00000   230.40090     3.66908
     6.20000    90.00000   219.59893     3.66908    90.00000   230.40107     3.66908
     6.30000    90.00000   219.59875     3.66907    90.00000   230.40125     3.66907
     6.40000    90.00000   219.59857     3.66907    90.00000   230.40143     3.66907
     6.50000    90.00000   219.59839     3.66906    90.00000   230.40161     3.66906
     6.60000    90.00000   219.59822     3.66905    90.00000   230.40178     3.66905
     6.70000    90.00000   219.59804     3.66905    90.00000   230.40196     3.66905
     6.80000    90.00000   219.59786     3.66904    90.00000   230.40214     3.66904
     6.90000    90.00000   219.59769     3.66903    90.00000   230.40231     3.66903
     7.00000    90.00000   219.59751     3.66903    90.00000   230.40249     3.66903
     7.10000    90.00000   219.59733     3.66902    90.00000   230.40267     3.66902
     7.20000    90.00000   219.59716     3.66902    90.00000   230.40284     3.66902
     7.30000    90.00000   219.59698     3.66901    90.00000   230.40302     3.66901
     7.40000    90.00000   219.59680     3.66900    90.00000   230.40320     3.66900
     7.50000    90.00000   219.59662     3.66900    90.00000   230.40338     3.66900
     7.60000    90.00000   219.59645     3.66899    90.00000   230.40355     3.66899
     7.70000    90.00000   219.59627     3.66898    90.00000   230.40373     3.66898
     7.80000    90.00000   219.59609     3.66898    90.00000   230.40391     3.66898
     7.90000    90.00000   219.59592     3.66897    90.00000   230.40408     3.66897
     8.00000    90.00000   219.59574     3.66896    90.00000   230.40426     3.66896
     8.10000    90.00000   219.59556     3.66896    90.00000   230.40444     3.66896
     8.20000    90.00000   219.59538     3.66895    90.00000   230.40462     3.66895
     8.30000    90.00000   219.59521     3.66895    90.00000   230.40479     3.66895
     8.40000    90.00000   219.59503     3.66894    90.00000   230.40497     3.66894
     8.50000    90.00000   219.59485     3.66893    90.00000   230.40515     3.66893
     8.60000    90.00000   219.59468     3.66893    90.00000   230.40532     3.66893
     8.70000    90.00000   219.59450     3.66892    90.00000   230.40550     3.66892
     8.80000    90.00000   219.59432     3.66891    90.00000   230.40568     3.66891
     8.90000    90.00000   219.59414     3.66891    90.00000   230.40586     3.66891
     9.00000    90.00000   219.59397     3.66890    90.00000   230.40603     3.66890
     9.10000    90.00000   219.59379     3.66889    90.00000   230.40621     3.66889
     9.20000    90.00000   219.59361     3.66889    90.00000   230.40639     3.66889
     9.30000    90.00000   219.59343     3.66888    90.00000   230.40657     3.66888
     9.40000    90.00000   219.59326     3.66887    90.00000   230.40674     3.66887
     9.50000    90.00000   219.59308     3.66887    90.00000   230.40692     3.66887
     9.60000    90.00000   219.59290     3.66886    90.00000   230.40710     3.66886
     9.70000    90.00000   219.59272     3.66885    90.00000   230.40728     3.66885
     9.80000    90.00000   219.59255     3.66885    90.00000   230.40745     3.66885
     9.90000    90.00000   219.59237     3.66884    90.00000   230.40763     3.66884
    10.00000    90.00000   219.59219     3.66883    90.00000   230.40781     3.66883
    10.10000    90.00000   219.59202     3.66883    90.00000   230.40798     3.66883
    10.20000    90.00000   219.59184     3.66882    90.00000   230.40816     3.66882
    10.30000    90.00000   219.59166     3.66881    90.00000   230.40834     3.66881
    10.40000    90.00000   219.59148     3.66881    90.00000   230.40852     3.66881
    10.50000    90.00000   219.59131     3.66880    90.00000   230.40869     3.66880
    10.60000    90.00000   219.59113     3.66879    90.00000   230.40887     3.66879
    10.70000    90.00000   219.59095     3.66878    90.00000   230.40905     3.66878
    10.80000    90.00000   219.59077     3.66878    90.00000   230.40923     3.66878
    10.90000    90.00000   219.59059     3.66877    90.00000   230.40941     3.66877
    11.00000    90.00000   219.59042     3.66876    90.00000   230.40958     3.66876
    11.10000    90.00000   219.59024     3.66876    90.00000   230.40976     3.66876
    11.20000    90.00000   219.59006     3.66875    90.00000   230.40994     3.66875
    11.30000    90.00000   219.58988     3.66874    90.00000   230.41012     3.66874
    11.40000    90.00000   219.58971     3.66874    90.00000   230.41029     3.66874
    11.50000    90.00000   219.58953     3.66873    90.00000   230.41047     3.66873
    11.60000    90.00000   219.58935     3.66872    90.00000   230.41065     3.66872
    11.70000    90.00000   219.58917     3.66871    90.00000   230.41083     3.66871
    11.80000    90.00000   219.58900     3.66871    90.00000   230.41100     3.66871
    11.90000    90.00000   219.58882     3.66870    90.00000   230.41118     3.66870
    12.00000    90.00000   219.58864     3.66869    90.00000   230.41136     3.66869
    12.10000    90.00000   219.58846     3.66869    90.00000   230.41154     3.66869
    12.20000    90.00000   219.58828     3.66868    90.00000   230.41172     3.66868
    12.30000    90.00000   219.58811     3.66867    90.00000   230.41189     3.66867
    12.40000    90.00000   219.58793     3.66866    90.00000   230.41207     3.66866
    12.50000    90.00000   219.58775     3.66866    90.00000   230.41225     3.66866
    12.60000    90.00000   219.58757     3.66865    90.00000   230.41243     3.66865
    12.70000    90.00000   219.58739     3.66864    90.00000   230.41261     3.66864
    12.80000    90.00000   219.58722     3.66864    90.00000   230.41278     3.66864
    12.90000    90.00000   219.58704     3.66863    90.00000   230.41296     3.66863
    13.00000    90.00000   219.58686     3.66862    90.00000   230.41314     3.66862
    13.10000    90.00000   219.58668     3.66861    90.00000   230.41332     3.66861
    13.20000    90.00000   219.58651     3.66861    90.00000   230.41349     3.66861
    13.30000    90.00000   219.58633     3.66860    90.00000   230.41367     3.66860
    13.40000    90.00000   219.58615     3.66859    90.00000   230.41385     3.66859
    13.50000    90.00000   219.58597     3.66858    90.00000   230.41403     3.66858
    13.60000    90.00000   219.58579     3.66858    90.00000   230.41421     3.66858
    13.70000    90.00000   219.58562     3.66857    90.00000   230.41438     3.66857
    13.80000    90.00000   219.58544     3.66856    90.00000   230.41456     3.66856
    13.90000    90.00000   219.58526     3.66855    90.00000   230.41474     3.66855
    14.00000    90.00000   219.58508     3.66855    90.00000   230.41492     3.66855
    14.10000    90.00000   219.58490     3.66854    90.00000   230.41510     3.66854
    14.20000    90.00000   219.58472     3.66853    90.00000   230.41528     3.66853
    14.30000    90.00000   219.58455     3.66852    90.00000   230.41545     3.66852
    14.40000    90.00000   219.58437     3.66852    90.00000   230.41563     3.66852
    14.50000    90.00000   219.58419     3.66851    90.00000   230.41581     3.66851
    14.60000    90.00000   219.58401     3.66850    90.00000   230.41599     3.66850
    14.70000    90.00000   219.58383     3.66849    90.00000   230.41617     3.66849
    14.80000    90.00000   219.58366     3.66849    90.00000   230.41634     3.66849
    14.90000    90.00000   219.58348     3.66848    90.00000   230.41652     3.66848
    15.00000    90.00000   219.58330     3.66847    90.00000   230.41670     3.66847
    15.10000    90.00000   219.58312     3.66846    90.00000   230.41688     3.66846
    15.20000    90.00000   219.58294     3.66846    90.00000   230.41706     3.66846
    15.30000    90.00000   219.58276     3.66845    90.00000   230.41724     3.66845
    15.40000    90.00000   219.58259     3.66844    90.00000   230.41741     3.66844
    15.50000    90.00000   219.58241     3.66843    90.00000   230.41759     3.66843
    15.60000    90.00000   219.58223     3.66842    90.00000   230.41777     3.66842
    15.70000    90.00000   219.58205     3.66842    90.00000   230.41795     3.66842
    15.80000    90.00000   219.58187     3.66841    90.00000   230.41813     3.66841
    15.90000    90.00000   219.58169     3.66840    90.00000   230.41831     3.66840
    16.00000    90.00000   219.58152     3.66839    90.00000   230.41848     3.66839
    16.10000    90.00000   219.58134     3.66838    90.00000   230.41866     3.66838
    16.20000    90.00000   219.58116     3.66838    90.00000   230.41884     3.66838
    16.30000    90.00000   219.58098     3.66837    90.00000   230.41902     3.66837
    16.40000    90.00000   219.58080     3.66836    90.00000   230.41920     3.66836
    16.50000    90.00000   219.58062     3.66835    90.00000   230.41938     3.66835
    16.60000    90.00000   219.58044     3.66835    90.00000   230.41956     3.66835
    16.70000    90.00000   219.58027     3.66834    90.00000   230.41973     3.66834
    16.80000    90.00000   219.58009     3.66833    90.00000   230.41991     3.66833
    16.90000    90.00000   219.57991     3.66832    90.00000   230.42009     3.66832
    17.00000    90.00000   219.57973     3.66831    90.00000   230.42027     3.66831
    17.10000    90.00000   219.57955     3.66830    90.00000   230.42045     3.66830
    17.20000    90.00000   219.57937     3.66830    90.00000   230.42063     3.66830
    17.30000    90.00000   219.57919     3.66829    90.00000   230.42081     3.66829
    17.40000    90.00000   219.57902     3.66828    90.00000   230.42098     3.66828
    17.50000    90.00000   219.57884     3.66827    90.00000   230.42116     3.66827
    17.60000    90.00000   219.57866     3.66826    90.00000   230.42134     3.66826
    17.70000    90.00000   219.57848     3.66826    90.00000   230.42152     3.66826
    17.80000    90.00000   219.57830     3.66825    90.00000   230.42170     3.66825
    17.90000    90.00000   219.57812     3.66824    90.00000   230.42188     3.66824
    18.00000    90.00000   219.57794     3.66823    90.00000   230.42206     3.66823
    18.10000    90.00000   219.57776     3.66822    90.00000   230.42224     3.66822
    18.20000    90.00000   219.57759     3.66821    90.00000   230.42241     3.66821
    18.30000    90.00000   219.57741     3.66821    90.00000   230.42259     3.66821
    18.40000    90.00000   219.57723     3.66820    90.00000   230.42277     3.66820
    18.50000    90.00000   219.57705     3.66819    90.00000   230.42295     3.66819
    18.60000    90.00000   219.57687     3.66818    90.00000   230.42313     3.66818
    18.70000    90.00000   219.57669     3.66817    90.00000   230.42331     3.66817
    18.80000    90.00000   219.57651     3.66816    90.00000   230.42349     3.66816
    18.90000    90.00000   219.57633     3.66816    90.00000   230.42367     3.66816
    19.00000    90.00000   219.57615     3.66815    90.00000   230.42385     3.66815
    19.10000    90.00000   219.57597     3.66814    90.00000   230.42403     3.66814
    19.20000    90.00000   219.57580     3.66813    90.00000   230.42420     3.66813
    19.30000    90.00000   219.57562     3.66812    90.00000   230.42438     3.66812
    19.40000    90.00000   219.57544     3.66811    90.00000   230.42456     3.66811
    19.50000    90.00000   219.57526     3.66811    90.00000   230.42474     3.66811
    19.60000    90.00000   219.57508     3.66810    90.00000   230.42492     3.66810
    19.70000    90.00000   219.57490     3.66809    90.00000   230.42510     3.66809
    19.80000    90.00000   219.57472     3.66808    90.00000   230.42528     3.66808
    19.90000    90.00000   219.57454     3.66807    90.00000   230.42546     3.66807
    20.00000    90.00000   219.57436     3.66806    90.00000   230.42564     3.66806
    20.10000    90.00000   219.57418     3.66805    90.00000   230.42582     3.66805
    20.20000    90.00000   219.57401     3.66805    90.00000   230.42599     3.66805
    20.30000    90.00000   219.57383     3.66804    90.00000   230.42617     3.66804
    20.40000    90.00000   219.57365     3.66803    90.00000   230.42635     3.66803
    20.50000    90.00000   219.57347     3.66802    90.00000   230.42653     3.66802
    20.60000    90.00000   219.57329     3.66801    90.00000   230.42671     3.66801
    20.70000    90.00000   219.57311     3.66800    90.00000   230.42689     3.66800
    20.80000    90.00000   219.57293     3.66799    90.00000   230.42707     3.66799
    20.90000    90.00000   219.57275     3.66798    90.00000   230.42725     3.66798
    21.00000    90.00000   219.57257     3.66798    90.00000   230.42743     3.66798
    21.10000    90.00000   219.57239     3.66797    90.00000   230.42761     3.66797
    21.20000    90.00000   219.57221     3.66796    90.00000   230.42779     3.66796
    21.30000    90.00000   219.57203     3.66795    90.00000   230.42797     3.66795
    21.40000    90.00000   219.57185     3.66794    90.00000   230.42815     3.66794
    21.50000    90.00000   219.57167     3.66793    90.00000   230.42833     3.66793
    21.60000    90.00000   219.57150     3.66792    90.00000   230.42850     3.66792
    21.70000    90.00000   219.57132     3.66791    90.00000   230.42868     3.66791
    21.80000    90.00000   219.57114     3.66790    90.00000   230.42886     3.66790
    21.90000    90.00000   219.57096     3.66790    90.00000   230.42904     3.66790
    22.00000    90.00000   219.57078     3.66789    90.00000   230.42922     3.66789
    22.10000    90.00000   219.57060     3.66788    90.00000   230.42940     3.66788
    22.20000    90.00000   219.57042     3.66787    90.00000   230.42958     3.66787
    22.30000    90.00000   219.57024     3.66786    90.00000   230.42976     3.66786
    22.40000    90.00000   219.57006     3.66785    90.00000   230.42994     3.66785
    22.50000    90.00000   219.56988     3.66784    90.00000   230.43012     3.66784
    22.60000    90.00000   219.56970     3.66783    90.00000   230.43030     3.66783
    22.70000    90.00000   219.56952     3.66782    90.00000   230.43048     3.66782
    22.80000    90.00000   219.56934     3.66781    90.00000   230.43066     3.66781
    22.90000    90.00000   219.56916     3.66780    90.00000   230.43084     3.66780
    23.00000    90.00000   219.56898     3.66780    90.00000   230.43102     3.66780
    23.10000    90.00000   219.56880     3.66779    90.00000   230.43120     3.66779
    23.20000    90.00000   219.56862     3.66778    90.00000   230.43138     3.66778
    23.30000    90.00000   219.56844     3.66777    90.00000   230.43156     3.66777
    23.40000    90.00000   219.56826     3.66776    90.00000   230.43174     3.66776
    23.50000    90.00000   219.56808     3.66775    90.00000   230.43192     3.66775
    23.60000    90.00000   219.56790     3.66774    90.00000   230.43210     3.66774
    23.70000    90.00000   219.56772     3.66773    90.00000   230.43228     3.66773
    23.80000    90.00000   219.56754     3.66772    90.00000   230.43246     3.66772
    23.90000    90.00000   219.56736     3.66771    90.00000   230.43264     3.66771
    24.00000    90.00000   219.56718     3.66770    90.00000   230.43282     3.66770
    24.10000    90.00000   219.56700     3.66769    90.00000   230.43300     3.66769
    24.20000    90.00000   219.56682     3.66768    90.00000   230.43318     3.66768
    24.30000    90.00000   219.56664     3.66767    90.00000   230.43336     3.66767
    24.40000    90.00000   219.56646     3.66767    90.00000   230.43354     3.66767
    24.50000    90.00000   219.56628     3.66766    90.00000   230.43372     3.66766
    24.60000    90.00000   219.56610     3.66765    90.00000   230.43390     3.66765
    24.70000    90.00000   219.56592     3.66764    90.00000   230.43408     3.66764
    24.80000    90.00000   219.56574     3.66763    90.00000   230.43426     3.66763
    24.90000    90.00000   219.56556     3.66762    90.00000   230.43444     3.66762
    25.00000    90.00000   219.56538     3.66761    90.00000   230.43462     3.66761
    25.10000    90.00000   219.56520     3.66760    90.00000   230.43480     3.66760
    25.20000    90.00000   219.56502     3.66759    90.00000   230.43498     3.66759
    25.30000    90.00000   219.56484     3.66758    90.00000   230.43516     3.66758
    25.40000    90.00000   219.56466     3.66757    90.00000   230.43534     3.66757
    25.50000    90.00000   219.56448     3.66756    90.00000   230.43552     3.66756
    25.60000    90.00000   219.56430     3.66755    90.00000   230.43570     3.66755
    25.70000    90.00000   219.56412     3.66754    90.00000   230.43588     3.66754
    25.80000    90.00000   219.56394     3.66753    90.00000   230.43606     3.66753
    25.90000    90.00000   219.56376     3.66752    90.00000   230.43624     3.66752
    26.00000    90.00000   219.56358     3.66751    90.00000   230.43642     3.66751
    26.10000    90.00000   219.56340     3.66750    90.00000   230.43660     3.66750
    26.20000    90.00000   219.56322     3.66749    90.00000   230.43678     3.66749
    26.30000    90.00000   219.56304     3.66748    90.00000   230.43696     3.66748
    26.40000    90.00000   219.56286     3.66747    90.00000   230.43714     3.66747
    26.50000    90.00000   219.56268     3.66746    90.00000   230.43732     3.66746
    26.60000    90.00000   219.56250     3.66745    90.00000   230.43750     3.66745
    26.70000    90.00000   219.56232     3.66744    90.00000   230.43768     3.66744
    26.80000    90.00000   219.56214     3.66743    90.00000   230.43786     3.66743
    26.90000    90.00000   219.56196     3.66742    90.00000   230.43804     3.66742
    27.00000    90.00000   219.56178     3.66741    90.00000   230.43822     3.66741
    27.10000    90.00000   219.56160     3.66740    90.00000   230.43840     3.66740
    27.20000    90.00000   219.56142     3.66739    90.00000   230.43858     3.66739
    27.30000    90.00000   219.56124     3.66738    90.00000   230.43876     3.66738
    27.40000    90.00000   219.56106     3.66737    90.00000   230.43894     3.66737
    27.50000    90.00000   219.56088     3.66736    90.00000   230.43912     3.66736
    27.60000    90.00000   219.56070     3.66735    90.00000   230.43930     3.66735
    27.70000    90.00000   219.56052     3.66734    90.00000   230.43948     3.66734
    27.80000    90.00000   219.56034     3.66733    90.00000   230.43966     3.66733
    27.90000    90.00000   219.56016     3.66732    90.00000   230.43984     3.66732
    28.00000    90.00000   219.55998     3.66731    90.00000   230.44002     3.66731
    28.10000    90.00000   219.55979     3.66730    90.00000   230.44021     3.66730
    28.20000    90.00000   219.55961     3.66729    90.00000   230.44039     3.66729
    28.30000    90.00000   219.55943     3.66728    90.00000   230.44057     3.66728
    28.40000    90.00000   219.55925     3.66727    90.00000   230.44075     3.66727
    28.50000    90.00000   219.55907     3.66726    90.00000   230.44093     3.66726
    28.60000    90.00000   219.55889     3.66725    90.00000   230.44111     3.66725
    28.70000    90.00000   219.55871     3.66724    90.00000   230.44129     3.66724
    28.80000    90.00000   219.55853     3.66723    90.00000   230.44147     3.66723
    28.90000    90.00000   219.55835     3.66722    90.00000   230.44165     3.66722
    29.00000    90.00000   219.55817     3.66721    90.00000   230.44183     3.66721
    29.10000    90.00000   219.55799     3.66720    90.00000   230.44201     3.66720
    29.20000    90.00000   219.55781     3.66719    90.00000   230.44219     3.66719
    29.30000    90.00000   219.55763     3.66718    90.00000   230.44237     3.66718
    29.40000    90.00000   219.55745     3.66717    90.00000   230.44255     3.66717
    29.50000    90.00000   219.55726     3.66716    90.00000   230.44274     3.66716
    29.60000    90.00000   219.55708     3.66715    90.00000   230.44292     3.66715
    29.70000    90.00000   219.55690     3.66714    90.00000   230.44310     3.66714
    29.80000    90.00000   219.55672     3.66713    90.00000   230.44328     3.66713
    29.90000    90.00000   219.55654     3.66712    90.00000   230.44346     3.66712
    30.00000    90.00000   219.55636     3.66711    90.00000   230.44364     3.66711
    30.10000    90.00000   219.55618     3.66710    90.00000   230.44382     3.66710
    30.20000    90.00000   219.55600     3.66709    90.00000   230.44400     3.66709
    30.30000    90.00000   219.55582     3.66708    90.00000   230.44418     3.66708
    30.40000    90.00000   219.55564     3.66707    90.00000   230.44436     3.66707
    30.50000    90.00000   219.55545     3.66706    90.00000   230.44455     3.66706
    30.60000    90.00000   219.55527     3.66705    90.00000   230.44473     3.66705
    30.70000    90.00000   219.55509     3.66703    90.00000   230.44491     3.66703
    30.80000    90.00000   219.55491     3.66702    90.00000   230.44509     3.66702
    30.90000    90.00000   219.55473     3.66701    90.00000   230.44527     3.66701
    31.00000    90.00000   219.55455     3.66700    90.00000   230.44545     3.66700
    31.10000    90.00000   219.55437     3.66699    90.00000   230.44563     3.66699
    31.20000    90.00000   219.55419     3.66698    90.00000   230.44581     3.66698
    31.30000    90.00000   219.55401     3.66697    90.00000   230.44599     3.66697
    31.40000    90.00000   219.55382     3.66696    90.00000   230.44618     3.66696
    31.50000    90.00000   219.55364     3.66695    90.00000   230.44636     3.66695
    31.60000    90.00000   219.55346     3.66694    90.00000   230.44654     3.66694
    31.70000    90.00000   219.55328     3.66693    90.00000   230.44672     3.66693
    31.80000    90.00000   219.55310     3.66692    90.00000   230.44690     3.66692
    31.90000    90.00000   219.55292     3.66691    90.00000   230.44708     3.66691
    32.00000    90.00000   219.55274     3.66690    90.00000   230.44726     3.66690
    32.10000    90.00000   219.55256     3.66688    90.00000   230.44744     3.66688
    32.20000    90.00000   219.55237     3.66687    90.00000   230.44763     3.66687
    32.30000    90.00000   219.55219     3.66686    90.00000   230.44781     3.66686
    32.40000    90.00000   219.55201     3.66685    90.00000   230.44799     3.66685
    32.50000    90.00000   219.55183     3.66684    90.00000   230.44817     3.66684
    32.60000    90.00000   219.55165     3.66683    90.00000   230.44835     3.66683
    32.70000    90.00000   219.55147     3.66682    90.00000   230.44853     3.66682
    32.80000    90.00000   219.55129     3.66681    90.00000   230.44871     3.66681
    32.90000    90.00000   219.55110     3.66680    90.00000   230.44890     3.66680
    33.00000    90.00000   219.55092     3.66679    90.00000   230.44908     3.66679
    33.10000    90.00000   219.55074     3.66677    90.00000   230.44926     3.66677
    33.20000    90.00000   219.55056     3.66676    90.00000   230.44944     3.66676
    33.30000    90.00000   219.55038     3.66675    90.00000   230.44962     3.66675
    33.40000    90.00000   219.55020     3.66674    90.00000   230.44980     3.66674
    33.50000    90.00000   219.55001     3.66673    90.00000   230.44999     3.66673
    33.60000    90.00000   219.54983     3.66672    90.00000   230.45017     3.66672
    33.70000    90.00000   219.54965     3.66671    90.00000   230.45035     3.66671
    33.80000    90.00000   219.54947     3.66670    90.00000   230.45053     3.66670
    33.90000    90.00000   219.54929     3.66669    90.00000   230.45071     3.66669
    34.00000    90.00000   219.54911     3.66667    90.00000   230.45089     3.66667
    34.10000    90.00000   219.54892     3.66666    90.00000   230.45108     3.66666
    34.20000    90.00000   219.54874     3.66665    90.00000   230.45126     3.66665
    34.30000    90.00000   219.54856     3.66664    90.00000   230.45144     3.66664
    34.40000    90.00000   219.54838     3.66663    90.00000   230.45162     3.66663
    34.50000    90.00000   219.54820     3.66662    90.00000   230.45180     3.66662
    34.60000    90.00000   219.54801     3.66661    90.00000   230.45199     3.66661
    34.70000    90.00000   219.54783     3.66660    90.00000   230.45217     3.66660
    34.80000    90.00000   219.54765     3.66658    90.00000   230.45235     3.66658
    34.90000    90.00000   219.54747     3.66657    90.00000   230.45253     3.66657
    35.00000    90.00000   219.54729     3.66656    90.00000   230.45271     3.66656
    35.10000    90.00000   219.54711     3.66655    90.00000   230.45289     3.66655
    35.20000    90.00000   219.54692     3.66654    90.00000   230.45308     3.66654
    35.30000    90.00000   219.54674     3.66653    90.00000   230.45326     3.66653
    35.40000    90.00000   219.54656     3.66652    90.00000   230.45344     3.66652
    35.50000    90.00000   219.54638     3.66650    90.00000   230.45362     3.66650
    35.60000    90.00000   219.54620     3.66649    90.00000   230.45380     3.66649
    35.70000    90.00000   219.54601     3.66648    90.00000   230.45399     3.66648
    35.80000    90.00000   219.54583     3.66647    90.00000   230.45417     3.66647
    35.90000    90.00000   219.54565     3.66646    90.00000   230.45435     3.66646
    36.00000    90.00000   219.54547     3.66645    90.00000   230.45453     3.66645
    36.10000    90.00000   219.54528     3.66644    90.00000   230.45472     3.66644
    36.20000    90.00000   219.54510     3.66642    90.00000   230.45490     3.66642
    36.30000    90.00000   219.54492     3.66641    90.00000   230.45508     3.66641
    36.40000    90.00000   219.54474     3.66640    90.00000   230.45526     3.66640
    36.50000    90.00000   219.54456     3.66639    90.00000   230.45544     3.66639
    36.60000    90.00000   219.54437     3.66638    90.00000   230.45563     3.66638
    36.70000    90.00000   219.54419     3.66637    90.00000   230.45581     3.66637
    36.80000    90.00000   219.54401     3.66635    90.00000   230.45599     3.66635
    36.90000    90.00000   219.54383     3.66634    90.00000   230.45617     3.66634
    37.00000    90.00000   219.54364     3.66633    90.00000   230.45636     3.66633
    37.10000    90.00000   219.54346     3.66632    90.00000   230.45654     3.66632
    37.20000    90.00000   219.54328     3.66631    90.00000   230.45672     3.66631
    37.30000    90.00000   219.54310     3.66630    90.00000   230.45690     3.66630
    37.40000    90.00000   219.54291     3.66628    90.00000   230.45709     3.66628
    37.50000    90.00000   219.54273     3.66627    90.00000   230.45727     3.66627
    37.60000    90.00000   219.54255     3.66626    90.00000   230.45745     3.66626
    37.70000    90.00000   219.54237     3.66625    90.00000   230.45763     3.66625
    37.80000    90.00000   219.54218     3.66624    90.00000   230.45782     3.66624
    37.90000    90.00000   219.54200     3.66622    90.00000   230.45800     3.66622
    38.00000    90.00000   219.54182     3.66621    90.00000   230.45818     3.66621
    38.10000    90.00000   219.54164     3.66620    90.00000   230.45836     3.66620
    38.20000    90.00000   219.54145     3.66619    90.00000   230.45855     3.66619
    38.30000    90.00000   219.54127     3.66618    90.00000   230.45873     3.66618
    38.40000    90.00000   219.54109     3.66616    90.00000   230.45891     3.66616
    38.50000    90.00000   219.54091     3.66615    90.00000   230.45909     3.66615
    38.60000    90.00000   219.54072     3.66614    90.00000   230.45928     3.66614
    38.70000    90.00000   219.54054     3.66613    90.00000   230.45946     3.66613
    38.80000    90.00000   219.54036     3.66612    90.00000   230.45964     3.66612
    38.90000    90.00000   219.54018     3.66610    90.00000   230.45982     3.66610
    39.00000    90.00000   219.53999     3.66609    90.00000   230.46001     3.66609
    39.10000    90.00000   219.53981     3.66608    90.00000   230.46019     3.66608
    39.20000    90.00000   219.53963     3.66607    90.00000   230.46037     3.66607
    39.30000    90.00000   219.53944     3.66606    90.00000   230.46056     3.66606
    39.40000    90.00000   219.53926     3.66604    90.00000   230.46074     3.66604
    39.50000    90.00000   219.53908     3.66603    90.00000   230.46092     3.66603
    39.60000    90.00000   219.53890     3.66602    90.00000   230.46110     3.66602
    39.70000    90.00000   219.53871     3.66601    90.00000   230.46129     3.66601
    39.80000    90.00000   219.53853     3.66599    90.00000   230.46147     3.66599
    39.90000    90.00000   219.53835     3.66598    90.00000   230.46165     3.66598
    40.00000    90.00000   219.53816     3.66597    90.00000   230.46184     3.66597
