 # applied field (T), theta (degree), phi (degree), abs for RE 3-4
     0.00000   180.00000   360.00000     3.79005   180.00000   360.00000     3.79005
     0.10000   179.66144   227.88853     3.79004   179.66144   222.11147     3.79004
     0.20000   179.32286   227.88846     3.79000   179.32286   222.11154     3.79000
     0.30000   178.98427   227.88835     3.78994   178.98427   222.11165     3.78994
     0.40000   178.59715   227.88685     3.78983   178.59715   222.11315     3.78983
     0.50000   178.25848   227.88689     3.78972   178.25848   222.11311     3.78972
     0.60000   177.91976   227.88680     3.78958   177.91976   222.11320     3.78958
     0.70000   177.58098   227.88662     3.78942   177.58098   222.11338     3.78942
     0.80000   177.24213   227.88636     3.78923   177.24213   222.11364     3.78923
     0.90000   176.90320   227.88603     3.78901   176.90320   222.11397     3.78901
     1.00000   176.51562   227.88506     3.78874   176.51562   222.11494     3.78874
     1.10000   176.17649   227.88466     3.78847   176.17649   222.11534     3.78847
     1.20000   175.83725   227.88419     3.78818   175.83725   222.11581     3.78818
     1.30000   175.49788   227.88367     3.78786   175.49788   222.11633     3.78786
     1.40000   175.15839   227.88309     3.78752   175.15839   222.11691     3.78752
     1.50000   174.81875   227.88246     3.78716   174.81875   222.11754     3.78716
     1.60000   174.43030   227.88135     3.78671   174.43030   222.11865     3.78671
     1.70000   174.09033   227.88063     3.78629   174.09033   222.11937     3.78629
     1.80000   173.75020   227.87986     3.78585   173.75020   222.12014     3.78585
     1.90000   173.40988   227.87904     3.78538   173.40988   222.12096     3.78538
     2.00000   173.06937   227.87817     3.78489   173.06937   222.12183     3.78489
     2.10000   172.67986   227.87686     3.78430   172.67986   222.12314     3.78430
     2.20000   172.33891   227.87590     3.78375   172.33891   222.12410     3.78375
     2.30000   171.99775   227.87489     3.78319   171.99775   222.12511     3.78319
     2.40000   171.65635   227.87383     3.78260   171.65635   222.12617     3.78260
     2.50000   171.31471   227.87272     3.78198   171.31471   222.12728     3.78198
     2.60000   170.92385   227.87120     3.78125   170.92385   222.12880     3.78125
     2.70000   170.58167   227.87000     3.78058   170.58167   222.13000     3.78058
     2.80000   170.23922   227.86875     3.77989   170.23922   222.13125     3.77989
     2.90000   169.89648   227.86746     3.77917   169.89648   222.13254     3.77917
     3.00000   169.50432   227.86576     3.77833   169.50432   222.13424     3.77833
     3.10000   169.16096   227.86437     3.77756   169.16096   222.13563     3.77756
     3.20000   168.81729   227.86294     3.77677   168.81729   222.13706     3.77677
     3.30000   168.47330   227.86147     3.77596   168.47330   222.13853     3.77596
     3.40000   168.07965   227.85958     3.77500   168.07965   222.14042     3.77500
     3.50000   167.73494   227.85802     3.77414   167.73494   222.14198     3.77414
     3.60000   167.38989   227.85641     3.77325   167.38989   222.14359     3.77325
     3.70000   166.99499   227.85438     3.77221   166.99499   222.14562     3.77221
     3.80000   166.64915   227.85268     3.77128   166.64915   222.14732     3.77128
     3.90000   166.30294   227.85094     3.77032   166.30294   222.14906     3.77032
     4.00000   165.90668   227.84878     3.76919   165.90668   222.15122     3.76919
     4.10000   165.55963   227.84695     3.76818   165.55963   222.15305     3.76818
     4.20000   165.21216   227.84508     3.76715   165.21216   222.15492     3.76715
     4.30000   164.81444   227.84277     3.76595   164.81444   222.15723     3.76595
     4.40000   164.46607   227.84082     3.76487   164.46607   222.15918     3.76487
     4.50000   164.06730   227.83842     3.76361   164.06730   222.16158     3.76361
     4.60000   163.71798   227.83638     3.76248   163.71798   222.16362     3.76248
     4.70000   163.36821   227.83430     3.76134   163.36821   222.16570     3.76134
     4.80000   162.96779   227.83177     3.76000   162.96779   222.16823     3.76000
     4.90000   162.61701   227.82961     3.75880   162.61701   222.17039     3.75880
     5.00000   162.21542   227.82699     3.75741   162.21542   222.17301     3.75741
     5.10000   161.86359   227.82474     3.75617   161.86359   222.17526     3.75617
     5.20000   161.46077   227.82203     3.75472   161.46077   222.17797     3.75472
     5.30000   161.10785   227.81971     3.75344   161.10785   222.18029     3.75344
     5.40000   160.70377   227.81691     3.75194   160.70377   222.18309     3.75194
     5.50000   160.34971   227.81451     3.75061   160.34971   222.18549     3.75061
     5.60000   159.94431   227.81163     3.74906   159.94431   222.18837     3.74906
     5.70000   159.53819   227.80871     3.74749   159.53819   222.19129     3.74749
     5.80000   159.18231   227.80619     3.74609   159.18231   222.19381     3.74609
     5.90000   158.77480   227.80318     3.74446   158.77480   222.19682     3.74446
     6.00000   158.41770   227.80058     3.74302   158.41770   222.19942     3.74302
     6.10000   158.00876   227.79750     3.74135   158.00876   222.20250     3.74135
     6.20000   157.59903   227.79437     3.73965   157.59903   222.20563     3.73965
     6.30000   157.18851   227.79120     3.73793   157.18851   222.20880     3.73793
     6.40000   156.82873   227.78846     3.73640   156.82873   222.21154     3.73640
     6.50000   156.41669   227.78521     3.73463   156.41669   222.21479     3.73463
     6.60000   156.00381   227.78193     3.73283   156.00381   222.21807     3.73283
     6.70000   155.59009   227.77860     3.73101   155.59009   222.22140     3.73101
     6.80000   155.22747   227.77572     3.72940   155.22747   222.22428     3.72940
     6.90000   154.81214   227.77233     3.72754   154.81214   222.22767     3.72754
     7.00000   154.39593   227.76889     3.72565   154.39593   222.23111     3.72565
     7.10000   153.97883   227.76542     3.72374   153.97883   222.23458     3.72374
     7.20000   153.56083   227.76192     3.72180   153.56083   222.23808     3.72180
     7.30000   153.14191   227.75838     3.71985   153.14191   222.24162     3.71985
     7.40000   152.72207   227.75480     3.71787   152.72207   222.24520     3.71787
     7.50000   152.30129   227.75119     3.71587   152.30129   222.24881     3.71587
     7.60000   151.87957   227.74755     3.71385   151.87957   222.25245     3.71385
     7.70000   151.45688   227.74388     3.71180   151.45688   222.25612     3.71180
     7.80000   151.03323   227.74017     3.70974   151.03323   222.25983     3.70974
     7.90000   150.60859   227.73643     3.70766   150.60859   222.26357     3.70766
     8.00000   150.18296   227.73267     3.70555   150.18296   222.26733     3.70555
     8.10000   149.75633   227.72887     3.70343   149.75633   222.27113     3.70343
     8.20000   149.27508   227.72453     3.70102   149.27508   222.27547     3.70102
     8.30000   148.84628   227.72067     3.69886   148.84628   222.27933     3.69886
     8.40000   148.41645   227.71679     3.69667   148.41645   222.28321     3.69667
     8.50000   147.98557   227.71288     3.69447   147.98557   222.28712     3.69447
     8.60000   147.49950   227.70842     3.69198   147.49950   222.29158     3.69198
     8.70000   147.06636   227.70446     3.68974   147.06636   222.29554     3.68974
     8.80000   146.57773   227.69994     3.68721   146.57773   222.30006     3.68721
     8.90000   146.14229   227.69594     3.68494   146.14229   222.30406     3.68494
     9.00000   145.65105   227.69137     3.68236   145.65105   222.30863     3.68236
     9.10000   145.21328   227.68732     3.68006   145.21328   222.31268     3.68006
     9.20000   144.71938   227.68270     3.67745   144.71938   222.31730     3.67745
     9.30000   144.22406   227.67807     3.67483   144.22406   222.32193     3.67483
     9.40000   143.78263   227.67396     3.67248   143.78263   222.32604     3.67248
     9.50000   143.28459   227.66929     3.66982   143.28459   222.33071     3.66982
     9.60000   142.78509   227.66460     3.66715   142.78509   222.33540     3.66715
     9.70000   142.28412   227.65989     3.66446   142.28412   222.34011     3.66446
     9.80000   141.78168   227.65517     3.66175   141.78168   222.34483     3.66175
     9.90000   141.27774   227.65043     3.65904   141.27774   222.34957     3.65904
    10.00000   140.77231   227.64568     3.65631   140.77231   222.35432     3.65631
    10.10000   140.26537   227.64092     3.65357   140.26537   222.35908     3.65357
    10.20000   139.75691   227.63615     3.65082   139.75691   222.36385     3.65082
    10.30000   139.24692   227.63138     3.64806   139.24692   222.36862     3.64806
    10.40000   138.67842   227.62604     3.64498   138.67842   222.37396     3.64498
    10.50000   138.16518   227.62125     3.64220   138.16518   222.37875     3.64220
    10.60000   137.65039   227.61646     3.63941   137.65039   222.38354     3.63941
    10.70000   137.07652   227.61111     3.63630   137.07652   222.38889     3.63630
    10.80000   136.50072   227.60576     3.63319   136.50072   222.39424     3.63319
    10.90000   135.98089   227.60097     3.63039   135.98089   222.39903     3.63039
    11.00000   135.40139   227.59563     3.62726   135.40139   222.40437     3.62726
    11.10000   134.81994   227.59029     3.62414   134.81994   222.40971     3.62414
    11.20000   134.23653   227.58497     3.62101   134.23653   222.41503     3.62101
    11.30000   133.65115   227.57965     3.61788   133.65115   222.42035     3.61788
    11.40000   133.06380   227.57435     3.61475   133.06380   222.42565     3.61475
    11.50000   132.47447   227.56907     3.61162   132.47447   222.43093     3.61162
    11.60000   131.82389   227.56326     3.60819   131.82389   222.43674     3.60819
    11.70000   131.23040   227.55801     3.60507   131.23040   222.44199     3.60507
    11.80000   130.57524   227.55225     3.60165   130.57524   222.44775     3.60165
    11.90000   129.91768   227.54652     3.59823   129.91768   222.45348     3.59823
    12.00000   129.25772   227.54083     3.59483   129.25772   222.45917     3.59483
    12.10000   128.59536   227.53517     3.59144   128.59536   222.46483     3.59144
    12.20000   127.93062   227.52955     3.58807   127.93062   222.47045     3.58807
    12.30000   127.20268   227.52345     3.58440   127.20268   222.47655     3.58440
    12.40000   126.53295   227.51793     3.58106   126.53295   222.48207     3.58106
    12.50000   125.79960   227.51194     3.57745   125.79960   222.48806     3.57745
    12.60000   125.06343   227.50602     3.57386   125.06343   222.49398     3.57386
    12.70000   124.32447   227.50016     3.57030   124.32447   222.49984     3.57030
    12.80000   123.52077   227.49388     3.56648   123.52077   222.50612     3.56648
    12.90000   122.77604   227.48817     3.56299   122.77604   222.51183     3.56299
    13.00000   121.96613   227.48207     3.55925   121.96613   222.51793     3.55925
    13.10000   121.09035   227.47559     3.55528   121.09035   222.52441     3.55528
    13.20000   120.27387   227.46969     3.55164   120.27387   222.53031     3.55164
    13.30000   119.39108   227.46344     3.54779   119.39108   222.53656     3.54779
    13.40000   118.50474   227.45732     3.54401   118.50474   222.54268     3.54401
    13.50000   117.55118   227.45091     3.54003   117.55118   222.54909     3.54003
    13.60000   116.59368   227.44466     3.53614   116.59368   222.55534     3.53614
    13.70000   115.56806   227.43818     3.53210   115.56806   222.56182     3.53210
    13.80000   114.53814   227.43189     3.52817   114.53814   222.56811     3.52817
    13.90000   113.43924   227.42543     3.52412   113.43924   222.57457     3.52412
    14.00000   112.27069   227.41885     3.51998   112.27069   222.58115     3.51998
    14.10000   111.03182   227.41221     3.51579   111.03182   222.58779     3.51579
    14.20000   109.78764   227.40589     3.51179   109.78764   222.59411     3.51179
    14.30000   108.40658   227.39930     3.50761   108.40658   222.60070     3.50761
    14.40000   106.88728   227.39257     3.50333   106.88728   222.60743     3.50333
    14.50000   105.22843   227.38585     3.49904   105.22843   222.61415     3.49904
    14.60000   103.36213   227.37908     3.49471   103.36213   222.62092     3.49471
    14.70000   101.21955   227.37238     3.49040   101.21955   222.62762     3.49040
    14.80000    98.52909   227.36559     3.48602    98.52909   222.63441     3.48602
    14.90000    94.40671   227.35874     3.48160    94.40671   222.64126     3.48160
    15.00000    90.00000   227.35628     3.47997    90.00000   222.64372     3.47997
    15.10000    90.00000   227.35636     3.47996    90.00000   222.64364     3.47996
    15.20000    90.00000   227.35643     3.47995    90.00000   222.64357     3.47995
    15.30000    90.00000   227.35650     3.47994    90.00000   222.64350     3.47994
    15.40000    90.00000   227.35657     3.47993    90.00000   222.64343     3.47993
    15.50000    90.00000   227.35664     3.47992    90.00000   222.64336     3.47992
    15.60000    90.00000   227.35672     3.47990    90.00000   222.64328     3.47990
    15.70000    90.00000   227.35679     3.47989    90.00000   222.64321     3.47989
    15.80000    90.00000   227.35686     3.47988    90.00000   222.64314     3.47988
    15.90000    90.00000   227.35693     3.47987    90.00000   222.64307     3.47987
    16.00000    90.00000   227.35700     3.47986    90.00000   222.64300     3.47986
    16.10000    90.00000   227.35707     3.47984    90.00000   222.64293     3.47984
    16.20000    90.00000   227.35715     3.47983    90.00000   222.64285     3.47983
    16.30000    90.00000   227.35722     3.47982    90.00000   222.64278     3.47982
    16.40000    90.00000   227.35729     3.47981    90.00000   222.64271     3.47981
    16.50000    90.00000   227.35736     3.47980    90.00000   222.64264     3.47980
    16.60000    90.00000   227.35743     3.47979    90.00000   222.64257     3.47979
    16.70000    90.00000   227.35750     3.47977    90.00000   222.64250     3.47977
    16.80000    90.00000   227.35758     3.47976    90.00000   222.64242     3.47976
    16.90000    90.00000   227.35765     3.47975    90.00000   222.64235     3.47975
    17.00000    90.00000   227.35772     3.47974    90.00000   222.64228     3.47974
    17.10000    90.00000   227.35779     3.47973    90.00000   222.64221     3.47973
    17.20000    90.00000   227.35786     3.47971    90.00000   222.64214     3.47971
    17.30000    90.00000   227.35794     3.47970    90.00000   222.64206     3.47970
    17.40000    90.00000   227.35801     3.47969    90.00000   222.64199     3.47969
    17.50000    90.00000   227.35808     3.47968    90.00000   222.64192     3.47968
    17.60000    90.00000   227.35815     3.47967    90.00000   222.64185     3.47967
    17.70000    90.00000   227.35822     3.47965    90.00000   222.64178     3.47965
    17.80000    90.00000   227.35830     3.47964    90.00000   222.64170     3.47964
    17.90000    90.00000   227.35837     3.47963    90.00000   222.64163     3.47963
    18.00000    90.00000   227.35844     3.47962    90.00000   222.64156     3.47962
    18.10000    90.00000   227.35851     3.47960    90.00000   222.64149     3.47960
    18.20000    90.00000   227.35858     3.47959    90.00000   222.64142     3.47959
    18.30000    90.00000   227.35866     3.47958    90.00000   222.64134     3.47958
    18.40000    90.00000   227.35873     3.47957    90.00000   222.64127     3.47957
    18.50000    90.00000   227.35880     3.47956    90.00000   222.64120     3.47956
    18.60000    90.00000   227.35887     3.47954    90.00000   222.64113     3.47954
    18.70000    90.00000   227.35894     3.47953    90.00000   222.64106     3.47953
    18.80000    90.00000   227.35902     3.47952    90.00000   222.64098     3.47952
    18.90000    90.00000   227.35909     3.47951    90.00000   222.64091     3.47951
    19.00000    90.00000   227.35916     3.47949    90.00000   222.64084     3.47949
    19.10000    90.00000   227.35923     3.47948    90.00000   222.64077     3.47948
    19.20000    90.00000   227.35930     3.47947    90.00000   222.64070     3.47947
    19.30000    90.00000   227.35938     3.47946    90.00000   222.64062     3.47946
    19.40000    90.00000   227.35945     3.47944    90.00000   222.64055     3.47944
    19.50000    90.00000   227.35952     3.47943    90.00000   222.64048     3.47943
    19.60000    90.00000   227.35959     3.47942    90.00000   222.64041     3.47942
    19.70000    90.00000   227.35966     3.47941    90.00000   222.64034     3.47941
    19.80000    90.00000   227.35974     3.47939    90.00000   222.64026     3.47939
    19.90000    90.00000   227.35981     3.47938    90.00000   222.64019     3.47938
    20.00000    90.00000   227.35988     3.47937    90.00000   222.64012     3.47937
    20.10000    90.00000   227.35995     3.47936    90.00000   222.64005     3.47936
    20.20000    90.00000   227.36003     3.47934    90.00000   222.63997     3.47934
    20.30000    90.00000   227.36010     3.47933    90.00000   222.63990     3.47933
    20.40000    90.00000   227.36017     3.47932    90.00000   222.63983     3.47932
    20.50000    90.00000   227.36024     3.47931    90.00000   222.63976     3.47931
    20.60000    90.00000   227.36031     3.47929    90.00000   222.63969     3.47929
    20.70000    90.00000   227.36039     3.47928    90.00000   222.63961     3.47928
    20.80000    90.00000   227.36046     3.47927    90.00000   222.63954     3.47927
    20.90000    90.00000   227.36053     3.47926    90.00000   222.63947     3.47926
    21.00000    90.00000   227.36060     3.47924    90.00000   222.63940     3.47924
    21.10000    90.00000   227.36068     3.47923    90.00000   222.63932     3.47923
    21.20000    90.00000   227.36075     3.47922    90.00000   222.63925     3.47922
    21.30000    90.00000   227.36082     3.47920    90.00000   222.63918     3.47920
    21.40000    90.00000   227.36089     3.47919    90.00000   222.63911     3.47919
    21.50000    90.00000   227.36096     3.47918    90.00000   222.63904     3.47918
    21.60000    90.00000   227.36104     3.47917    90.00000   222.63896     3.47917
    21.70000    90.00000   227.36111     3.47915    90.00000   222.63889     3.47915
    21.80000    90.00000   227.36118     3.47914    90.00000   222.63882     3.47914
    21.90000    90.00000   227.36125     3.47913    90.00000   222.63875     3.47913
    22.00000    90.00000   227.36133     3.47911    90.00000   222.63867     3.47911
    22.10000    90.00000   227.36140     3.47910    90.00000   222.63860     3.47910
    22.20000    90.00000   227.36147     3.47909    90.00000   222.63853     3.47909
    22.30000    90.00000   227.36154     3.47908    90.00000   222.63846     3.47908
    22.40000    90.00000   227.36162     3.47906    90.00000   222.63838     3.47906
    22.50000    90.00000   227.36169     3.47905    90.00000   222.63831     3.47905
    22.60000    90.00000   227.36176     3.47904    90.00000   222.63824     3.47904
    22.70000    90.00000   227.36183     3.47902    90.00000   222.63817     3.47902
    22.80000    90.00000   227.36190     3.47901    90.00000   222.63810     3.47901
    22.90000    90.00000   227.36198     3.47900    90.00000   222.63802     3.47900
    23.00000    90.00000   227.36205     3.47898    90.00000   222.63795     3.47898
    23.10000    90.00000   227.36212     3.47897    90.00000   222.63788     3.47897
    23.20000    90.00000   227.36219     3.47896    90.00000   222.63781     3.47896
    23.30000    90.00000   227.36227     3.47894    90.00000   222.63773     3.47894
    23.40000    90.00000   227.36234     3.47893    90.00000   222.63766     3.47893
    23.50000    90.00000   227.36241     3.47892    90.00000   222.63759     3.47892
    23.60000    90.00000   227.36248     3.47890    90.00000   222.63752     3.47890
    23.70000    90.00000   227.36256     3.47889    90.00000   222.63744     3.47889
    23.80000    90.00000   227.36263     3.47888    90.00000   222.63737     3.47888
    23.90000    90.00000   227.36270     3.47886    90.00000   222.63730     3.47886
    24.00000    90.00000   227.36277     3.47885    90.00000   222.63723     3.47885
    24.10000    90.00000   227.36285     3.47884    90.00000   222.63715     3.47884
    24.20000    90.00000   227.36292     3.47882    90.00000   222.63708     3.47882
    24.30000    90.00000   227.36299     3.47881    90.00000   222.63701     3.47881
    24.40000    90.00000   227.36306     3.47880    90.00000   222.63694     3.47880
    24.50000    90.00000   227.36314     3.47878    90.00000   222.63686     3.47878
    24.60000    90.00000   227.36321     3.47877    90.00000   222.63679     3.47877
    24.70000    90.00000   227.36328     3.47876    90.00000   222.63672     3.47876
    24.80000    90.00000   227.36335     3.47874    90.00000   222.63665     3.47874
    24.90000    90.00000   227.36343     3.47873    90.00000   222.63657     3.47873
    25.00000    90.00000   227.36350     3.47872    90.00000   222.63650     3.47872
    25.10000    90.00000   227.36357     3.47870    90.00000   222.63643     3.47870
    25.20000    90.00000   227.36364     3.47869    90.00000   222.63636     3.47869
    25.30000    90.00000   227.36372     3.47868    90.00000   222.63628     3.47868
    25.40000    90.00000   227.36379     3.47866    90.00000   222.63621     3.47866
    25.50000    90.00000   227.36386     3.47865    90.00000   222.63614     3.47865
    25.60000    90.00000   227.36394     3.47864    90.00000   222.63606     3.47864
    25.70000    90.00000   227.36401     3.47862    90.00000   222.63599     3.47862
    25.80000    90.00000   227.36408     3.47861    90.00000   222.63592     3.47861
    25.90000    90.00000   227.36415     3.47859    90.00000   222.63585     3.47859
    26.00000    90.00000   227.36423     3.47858    90.00000   222.63577     3.47858
    26.10000    90.00000   227.36430     3.47857    90.00000   222.63570     3.47857
    26.20000    90.00000   227.36437     3.47855    90.00000   222.63563     3.47855
    26.30000    90.00000   227.36444     3.47854    90.00000   222.63556     3.47854
    26.40000    90.00000   227.36452     3.47853    90.00000   222.63548     3.47853
    26.50000    90.00000   227.36459     3.47851    90.00000   222.63541     3.47851
    26.60000    90.00000   227.36466     3.47850    90.00000   222.63534     3.47850
    26.70000    90.00000   227.36474     3.47848    90.00000   222.63526     3.47848
    26.80000    90.00000   227.36481     3.47847    90.00000   222.63519     3.47847
    26.90000    90.00000   227.36488     3.47846    90.00000   222.63512     3.47846
    27.00000    90.00000   227.36495     3.47844    90.00000   222.63505     3.47844
    27.10000    90.00000   227.36503     3.47843    90.00000   222.63497     3.47843
    27.20000    90.00000   227.36510     3.47841    90.00000   222.63490     3.47841
    27.30000    90.00000   227.36517     3.47840    90.00000   222.63483     3.47840
    27.40000    90.00000   227.36525     3.47839    90.00000   222.63475     3.47839
    27.50000    90.00000   227.36532     3.47837    90.00000   222.63468     3.47837
    27.60000    90.00000   227.36539     3.47836    90.00000   222.63461     3.47836
    27.70000    90.00000   227.36546     3.47834    90.00000   222.63454     3.47834
    27.80000    90.00000   227.36554     3.47833    90.00000   222.63446     3.47833
    27.90000    90.00000   227.36561     3.47832    90.00000   222.63439     3.47832
    28.00000    90.00000   227.36568     3.47830    90.00000   222.63432     3.47830
    28.10000    90.00000   227.36576     3.47829    90.00000   222.63424     3.47829
    28.20000    90.00000   227.36583     3.47827    90.00000   222.63417     3.47827
    28.30000    90.00000   227.36590     3.47826    90.00000   222.63410     3.47826
    28.40000    90.00000   227.36597     3.47824    90.00000   222.63403     3.47824
    28.50000    90.00000   227.36605     3.47823    90.00000   222.63395     3.47823
    28.60000    90.00000   227.36612     3.47822    90.00000   222.63388     3.47822
    28.70000    90.00000   227.36619     3.47820    90.00000   222.63381     3.47820
    28.80000    90.00000   227.36627     3.47819    90.00000   222.63373     3.47819
    28.90000    90.00000   227.36634     3.47817    90.00000   222.63366     3.47817
    29.00000    90.00000   227.36641     3.47816    90.00000   222.63359     3.47816
    29.10000    90.00000   227.36648     3.47814    90.00000   222.63352     3.47814
    29.20000    90.00000   227.36656     3.47813    90.00000   222.63344     3.47813
    29.30000    90.00000   227.36663     3.47812    90.00000   222.63337     3.47812
    29.40000    90.00000   227.36670     3.47810    90.00000   222.63330     3.47810
    29.50000    90.00000   227.36678     3.47809    90.00000   222.63322     3.47809
    29.60000    90.00000   227.36685     3.47807    90.00000   222.63315     3.47807
    29.70000    90.00000   227.36692     3.47806    90.00000   222.63308     3.47806
    29.80000    90.00000   227.36700     3.47804    90.00000   222.63300     3.47804
    29.90000    90.00000   227.36707     3.47803    90.00000   222.63293     3.47803
    30.00000    90.00000   227.36714     3.47801    90.00000   222.63286     3.47801
    30.10000    90.00000   227.36722     3.47800    90.00000   222.63278     3.47800
    30.20000    90.00000   227.36729     3.47799    90.00000   222.63271     3.47799
    30.30000    90.00000   227.36736     3.47797    90.00000   222.63264     3.47797
    30.40000    90.00000   227.36743     3.47796    90.00000   222.63257     3.47796
    30.50000    90.00000   227.36751     3.47794    90.00000   222.63249     3.47794
    30.60000    90.00000   227.36758     3.47793    90.00000   222.63242     3.47793
    30.70000    90.00000   227.36765     3.47791    90.00000   222.63235     3.47791
    30.80000    90.00000   227.36773     3.47790    90.00000   222.63227     3.47790
    30.90000    90.00000   227.36780     3.47788    90.00000   222.63220     3.47788
    31.00000    90.00000   227.36787     3.47787    90.00000   222.63213     3.47787
    31.10000    90.00000   227.36795     3.47785    90.00000   222.63205     3.47785
    31.20000    90.00000   227.36802     3.47784    90.00000   222.63198     3.47784
    31.30000    90.00000   227.36809     3.47782    90.00000   222.63191     3.47782
    31.40000    90.00000   227.36817     3.47781    90.00000   222.63183     3.47781
    31.50000    90.00000   227.36824     3.47779    90.00000   222.63176     3.47779
    31.60000    90.00000   227.36831     3.47778    90.00000   222.63169     3.47778
    31.70000    90.00000   227.36839     3.47777    90.00000   222.63161     3.47777
    31.80000    90.00000   227.36846     3.47775    90.00000   222.63154     3.47775
    31.90000    90.00000   227.36853     3.47774    90.00000   222.63147     3.47774
    32.00000    90.00000   227.36861     3.47772    90.00000   222.63139     3.47772
    32.10000    90.00000   227.36868     3.47771    90.00000   222.63132     3.47771
    32.20000    90.00000   227.36875     3.47769    90.00000   222.63125     3.47769
    32.30000    90.00000   227.36883     3.47768    90.00000   222.63117     3.47768
    32.40000    90.00000   227.36890     3.47766    90.00000   222.63110     3.47766
    32.50000    90.00000   227.36897     3.47765    90.00000   222.63103     3.47765
    32.60000    90.00000   227.36905     3.47763    90.00000   222.63095     3.47763
    32.70000    90.00000   227.36912     3.47762    90.00000   222.63088     3.47762
    32.80000    90.00000   227.36919     3.47760    90.00000   222.63081     3.47760
    32.90000    90.00000   227.36927     3.47759    90.00000   222.63073     3.47759
    33.00000    90.00000   227.36934     3.47757    90.00000   222.63066     3.47757
    33.10000    90.00000   227.36941     3.47756    90.00000   222.63059     3.47756
    33.20000    90.00000   227.36949     3.47754    90.00000   222.63051     3.47754
    33.30000    90.00000   227.36956     3.47752    90.00000   222.63044     3.47752
    33.40000    90.00000   227.36963     3.47751    90.00000   222.63037     3.47751
    33.50000    90.00000   227.36971     3.47749    90.00000   222.63029     3.47749
    33.60000    90.00000   227.36978     3.47748    90.00000   222.63022     3.47748
    33.70000    90.00000   227.36985     3.47746    90.00000   222.63015     3.47746
    33.80000    90.00000   227.36993     3.47745    90.00000   222.63007     3.47745
    33.90000    90.00000   227.37000     3.47743    90.00000   222.63000     3.47743
    34.00000    90.00000   227.37007     3.47742    90.00000   222.62993     3.47742
    34.10000    90.00000   227.37015     3.47740    90.00000   222.62985     3.47740
    34.20000    90.00000   227.37022     3.47739    90.00000   222.62978     3.47739
    34.30000    90.00000   227.37029     3.47737    90.00000   222.62971     3.47737
    34.40000    90.00000   227.37037     3.47736    90.00000   222.62963     3.47736
    34.50000    90.00000   227.37044     3.47734    90.00000   222.62956     3.47734
    34.60000    90.00000   227.37052     3.47733    90.00000   222.62948     3.47733
    34.70000    90.00000   227.37059     3.47731    90.00000   222.62941     3.47731
    34.80000    90.00000   227.37066     3.47730    90.00000   222.62934     3.47730
    34.90000    90.00000   227.37074     3.47728    90.00000   222.62926     3.47728
    35.00000    90.00000   227.37081     3.47726    90.00000   222.62919     3.47726
    35.10000    90.00000   227.37088     3.47725    90.00000   222.62912     3.47725
    35.20000    90.00000   227.37096     3.47723    90.00000   222.62904     3.47723
    35.30000    90.00000   227.37103     3.47722    90.00000   222.62897     3.47722
    35.40000    90.00000   227.37110     3.47720    90.00000   222.62890     3.47720
    35.50000    90.00000   227.37118     3.47719    90.00000   222.62882     3.47719
    35.60000    90.00000   227.37125     3.47717    90.00000   222.62875     3.47717
    35.70000    90.00000   227.37133     3.47716    90.00000   222.62867     3.47716
    35.80000    90.00000   227.37140     3.47714    90.00000   222.62860     3.47714
    35.90000    90.00000   227.37147     3.47712    90.00000   222.62853     3.47712
    36.00000    90.00000   227.37155     3.47711    90.00000   222.62845     3.47711
    36.10000    90.00000   227.37162     3.47709    90.00000   222.62838     3.47709
    36.20000    90.00000   227.37169     3.47708    90.00000   222.62831     3.47708
    36.30000    90.00000   227.37177     3.47706    90.00000   222.62823     3.47706
    36.40000    90.00000   227.37184     3.47705    90.00000   222.62816     3.47705
    36.50000    90.00000   227.37192     3.47703    90.00000   222.62808     3.47703
    36.60000    90.00000   227.37199     3.47701    90.00000   222.62801     3.47701
    36.70000    90.00000   227.37206     3.47700    90.00000   222.62794     3.47700
    36.80000    90.00000   227.37214     3.47698    90.00000   222.62786     3.47698
    36.90000    90.00000   227.37221     3.47697    90.00000   222.62779     3.47697
    37.00000    90.00000   227.37228     3.47695    90.00000   222.62772     3.47695
    37.10000    90.00000   227.37236     3.47693    90.00000   222.62764     3.47693
    37.20000    90.00000   227.37243     3.47692    90.00000   222.62757     3.47692
    37.30000    90.00000   227.37251     3.47690    90.00000   222.62749     3.47690
    37.40000    90.00000   227.37258     3.47689    90.00000   222.62742     3.47689
    37.50000    90.00000   227.37265     3.47687    90.00000   222.62735     3.47687
    37.60000    90.00000   227.37273     3.47685    90.00000   222.62727     3.47685
    37.70000    90.00000   227.37280     3.47684    90.00000   222.62720     3.47684
    37.80000    90.00000   227.37288     3.47682    90.00000   222.62712     3.47682
    37.90000    90.00000   227.37295     3.47681    90.00000   222.62705     3.47681
    38.00000    90.00000   227.37302     3.47679    90.00000   222.62698     3.47679
    38.10000    90.00000   227.37310     3.47677    90.00000   222.62690     3.47677
    38.20000    90.00000   227.37317     3.47676    90.00000   222.62683     3.47676
    38.30000    90.00000   227.37324     3.47674    90.00000   222.62676     3.47674
    38.40000    90.00000   227.37332     3.47673    90.00000   222.62668     3.47673
    38.50000    90.00000   227.37339     3.47671    90.00000   222.62661     3.47671
    38.60000    90.00000   227.37347     3.47669    90.00000   222.62653     3.47669
    38.70000    90.00000   227.37354     3.47668    90.00000   222.62646     3.47668
    38.80000    90.00000   227.37361     3.47666    90.00000   222.62639     3.47666
    38.90000    90.00000   227.37369     3.47664    90.00000   222.62631     3.47664
    39.00000    90.00000   227.37376     3.47663    90.00000   222.62624     3.47663
    39.10000    90.00000   227.37384     3.47661    90.00000   222.62616     3.47661
    39.20000    90.00000   227.37391     3.47660    90.00000   222.62609     3.47660
    39.30000    90.00000   227.37398     3.47658    90.00000   222.62602     3.47658
    39.40000    90.00000   227.37406     3.47656    90.00000   222.62594     3.47656
    39.50000    90.00000   227.37413     3.47655    90.00000   222.62587     3.47655
    39.60000    90.00000   227.37421     3.47653    90.00000   222.62579     3.47653
    39.70000    90.00000   227.37428     3.47651    90.00000   222.62572     3.47651
    39.80000    90.00000   227.37436     3.47650    90.00000   222.62564     3.47650
    39.90000    90.00000   227.37443     3.47648    90.00000   222.62557     3.47648
    40.00000    90.00000   227.37450     3.47646    90.00000   222.62550     3.47646
