 # applied field (T), theta (degree), phi (degree), abs for RE 1-2
     0.00000     1.62771   315.00000     3.56600     1.62771   225.00000     3.56600
     0.10000     2.39631   330.64216     3.56728     1.14870   259.26395     3.56234
     0.20000     3.20516   338.06769     3.56836     1.29522   301.25925     3.55876
     0.30000     4.09486   342.65750     3.56937     1.94217   326.06453     3.55483
     0.40000     5.00056   345.59690     3.57023     2.76378   337.42552     3.55077
     0.50000     5.91467   347.63169     3.57096     3.64501   343.46470     3.54658
     0.60000     6.83370   349.12116     3.57155     4.55250   347.13689     3.54225
     0.70000     7.75587   350.25784     3.57201     5.47427   349.58887     3.53779
     0.80000     8.68022   351.15367     3.57232     6.40514   351.33765     3.53319
     0.90000     9.60621   351.87795     3.57249     7.34260   352.64661     3.52846
     1.00000    10.53355   352.47581     3.57253     8.28532   353.66298     3.52361
     1.10000    11.46209   352.97788     3.57244     9.23258   354.47521     3.51863
     1.20000    12.44328   353.42750     3.57219    10.23676   355.17277     3.51325
     1.30000    13.42572   353.81243     3.57180    11.24527   355.74893     3.50773
     1.40000    14.35780   354.12950     3.57130    12.20473   356.20973     3.50240
     1.50000    15.34282   354.42330     3.57063    13.22138   356.62616     3.49665
     1.60000    16.38109   354.69536     3.56978    14.29591   357.00320     3.49048
     1.70000    17.36916   354.92468     3.56883    15.32121   357.31486     3.48452
     1.80000    18.41085   355.14040     3.56769    16.40497   357.60318     3.47814
     1.90000    19.45449   355.33397     3.56641    17.49363   357.85808     3.47168
     2.00000    20.50020   355.50875     3.56499    18.58729   358.08530     3.46514
     2.10000    21.60042   355.67498     3.56335    19.74103   358.29897     3.45820
     2.20000    22.70320   355.82605     3.56158    20.90060   358.49122     3.45122
     2.30000    23.80869   355.96404     3.55968    22.06614   358.66532     3.44420
     2.40000    24.96972   356.09642     3.55754    23.29361   358.83113     3.43683
     2.50000    26.18689   356.22326     3.55516    24.58411   358.98897     3.42913
     2.60000    27.35473   356.33497     3.55276    25.82582   359.12722     3.42180
     2.70000    28.63252   356.44742     3.55001    27.18833   359.26580     3.41387
     2.80000    29.91465   356.55129     3.54712    28.55950   359.39332     3.40605
     2.90000    31.25486   356.65146     3.54398    29.99700   359.51598     3.39805
     3.00000    32.65388   356.74802     3.54058    31.50205   359.63396     3.38994
     3.10000    34.05845   356.83774     3.53707    33.01747   359.74342     3.38208
     3.20000    35.57719   356.92762     3.53316    34.66077   359.85299     3.37395
     3.30000    37.10262   357.01135     3.52915    36.31585   359.95500     3.36622
     3.40000    38.74435   357.09505     3.52474    38.10172     0.05693     3.35844
     3.50000    40.50403   357.17829     3.51993    40.02047     0.15827     3.35079
     3.60000    42.32805   357.25842     3.51489    42.01346     0.25575     3.34367
     3.70000    44.32864   357.34005     3.50930    44.20285     0.35489     3.33684
     3.80000    46.45262   357.42051     3.50335    46.52960     0.45233     3.33079
     3.90000    48.75828   357.50166     3.49689    49.05585     0.55012     3.32564
     4.00000    51.30542   357.58489     3.48979    51.84438     0.64964     3.32167
     4.10000    54.15554   357.67130     3.48194    54.95796     0.75173     3.31932
     4.20000    57.42976   357.76330     3.47311    58.52114     0.85854     3.31918
     4.30000    61.31152   357.86425     3.46294    62.71977     0.97273     3.32225
     4.40000    66.16800   357.98090     3.45082    67.92376     1.09980     3.33031
     4.50000    73.03920   358.13291     3.43499    75.17758     1.25608     3.34800
     4.60000    88.76148   358.45210     3.40607    91.23852     1.54790     3.40607
     4.70000    88.76154   358.45216     3.40619    91.23846     1.54784     3.40619
     4.80000    88.76160   358.45222     3.40630    91.23840     1.54778     3.40630
     4.90000    88.76165   358.45229     3.40642    91.23835     1.54771     3.40642
     5.00000    88.76171   358.45235     3.40653    91.23829     1.54765     3.40653
     5.10000    88.76176   358.45241     3.40665    91.23824     1.54759     3.40665
     5.20000    88.76182   358.45248     3.40676    91.23818     1.54752     3.40676
     5.30000    88.76187   358.45254     3.40688    91.23813     1.54746     3.40688
     5.40000    88.76193   358.45260     3.40699    91.23807     1.54740     3.40699
     5.50000    88.76199   358.45267     3.40711    91.23801     1.54733     3.40711
     5.60000    88.76204   358.45273     3.40722    91.23796     1.54727     3.40722
     5.70000    88.76210   358.45279     3.40734    91.23790     1.54721     3.40734
     5.80000    88.76215   358.45286     3.40745    91.23785     1.54714     3.40745
     5.90000    88.76221   358.45292     3.40757    91.23779     1.54708     3.40757
     6.00000    88.76226   358.45298     3.40768    91.23774     1.54702     3.40768
     6.10000    88.76232   358.45304     3.40780    91.23768     1.54696     3.40780
     6.20000    88.76238   358.45311     3.40791    91.23762     1.54689     3.40791
     6.30000    88.76243   358.45317     3.40803    91.23757     1.54683     3.40803
     6.40000    88.76249   358.45323     3.40814    91.23751     1.54677     3.40814
     6.50000    88.76254   358.45330     3.40826    91.23746     1.54670     3.40826
     6.60000    88.76260   358.45336     3.40837    91.23740     1.54664     3.40837
     6.70000    88.76265   358.45342     3.40849    91.23735     1.54658     3.40849
     6.80000    88.76271   358.45349     3.40860    91.23729     1.54651     3.40860
     6.90000    88.76276   358.45355     3.40872    91.23724     1.54645     3.40872
     7.00000    88.76282   358.45361     3.40883    91.23718     1.54639     3.40883
     7.10000    88.76288   358.45368     3.40895    91.23712     1.54632     3.40895
     7.20000    88.76293   358.45374     3.40906    91.23707     1.54626     3.40906
     7.30000    88.76299   358.45380     3.40918    91.23701     1.54620     3.40918
     7.40000    88.76304   358.45386     3.40929    91.23696     1.54614     3.40929
     7.50000    88.76310   358.45393     3.40940    91.23690     1.54607     3.40940
     7.60000    88.76315   358.45399     3.40952    91.23685     1.54601     3.40952
     7.70000    88.76321   358.45405     3.40963    91.23679     1.54595     3.40963
     7.80000    88.76326   358.45412     3.40975    91.23674     1.54588     3.40975
     7.90000    88.76332   358.45418     3.40986    91.23668     1.54582     3.40986
     8.00000    88.76337   358.45424     3.40998    91.23663     1.54576     3.40998
     8.10000    88.76343   358.45430     3.41009    91.23657     1.54570     3.41009
     8.20000    88.76349   358.45437     3.41021    91.23651     1.54563     3.41021
     8.30000    88.76354   358.45443     3.41032    91.23646     1.54557     3.41032
     8.40000    88.76360   358.45449     3.41043    91.23640     1.54551     3.41043
     8.50000    88.76365   358.45456     3.41055    91.23635     1.54544     3.41055
     8.60000    88.76371   358.45462     3.41066    91.23629     1.54538     3.41066
     8.70000    88.76376   358.45468     3.41078    91.23624     1.54532     3.41078
     8.80000    88.76382   358.45474     3.41089    91.23618     1.54526     3.41089
     8.90000    88.76387   358.45481     3.41100    91.23613     1.54519     3.41100
     9.00000    88.76393   358.45487     3.41112    91.23607     1.54513     3.41112
     9.10000    88.76398   358.45493     3.41123    91.23602     1.54507     3.41123
     9.20000    88.76404   358.45500     3.41135    91.23596     1.54500     3.41135
     9.30000    88.76409   358.45506     3.41146    91.23591     1.54494     3.41146
     9.40000    88.76415   358.45512     3.41157    91.23585     1.54488     3.41157
     9.50000    88.76421   358.45518     3.41169    91.23579     1.54482     3.41169
     9.60000    88.76426   358.45525     3.41180    91.23574     1.54475     3.41180
     9.70000    88.76432   358.45531     3.41192    91.23568     1.54469     3.41192
     9.80000    88.76437   358.45537     3.41203    91.23563     1.54463     3.41203
     9.90000    88.76443   358.45543     3.41214    91.23557     1.54457     3.41214
    10.00000    88.76448   358.45550     3.41226    91.23552     1.54450     3.41226
    10.10000    88.76454   358.45556     3.41237    91.23546     1.54444     3.41237
    10.20000    88.76459   358.45562     3.41248    91.23541     1.54438     3.41248
    10.30000    88.76465   358.45569     3.41260    91.23535     1.54431     3.41260
    10.40000    88.76470   358.45575     3.41271    91.23530     1.54425     3.41271
    10.50000    88.76476   358.45581     3.41282    91.23524     1.54419     3.41282
    10.60000    88.76481   358.45587     3.41294    91.23519     1.54413     3.41294
    10.70000    88.76487   358.45594     3.41305    91.23513     1.54406     3.41305
    10.80000    88.76492   358.45600     3.41317    91.23508     1.54400     3.41317
    10.90000    88.76498   358.45606     3.41328    91.23502     1.54394     3.41328
    11.00000    88.76503   358.45612     3.41339    91.23497     1.54388     3.41339
    11.10000    88.76509   358.45619     3.41351    91.23491     1.54381     3.41351
    11.20000    88.76514   358.45625     3.41362    91.23486     1.54375     3.41362
    11.30000    88.76520   358.45631     3.41373    91.23480     1.54369     3.41373
    11.40000    88.76525   358.45637     3.41385    91.23475     1.54363     3.41385
    11.50000    88.76531   358.45644     3.41396    91.23469     1.54356     3.41396
    11.60000    88.76536   358.45650     3.41407    91.23464     1.54350     3.41407
    11.70000    88.76542   358.45656     3.41419    91.23458     1.54344     3.41419
    11.80000    88.76547   358.45662     3.41430    91.23453     1.54338     3.41430
    11.90000    88.76553   358.45669     3.41441    91.23447     1.54331     3.41441
    12.00000    88.76558   358.45675     3.41452    91.23442     1.54325     3.41452
    12.10000    88.76564   358.45681     3.41464    91.23436     1.54319     3.41464
    12.20000    88.76569   358.45687     3.41475    91.23431     1.54313     3.41475
    12.30000    88.76575   358.45694     3.41486    91.23425     1.54306     3.41486
    12.40000    88.76580   358.45700     3.41498    91.23420     1.54300     3.41498
    12.50000    88.76586   358.45706     3.41509    91.23414     1.54294     3.41509
    12.60000    88.76591   358.45712     3.41520    91.23409     1.54288     3.41520
    12.70000    88.76597   358.45719     3.41532    91.23403     1.54281     3.41532
    12.80000    88.76602   358.45725     3.41543    91.23398     1.54275     3.41543
    12.90000    88.76608   358.45731     3.41554    91.23392     1.54269     3.41554
    13.00000    88.76613   358.45737     3.41565    91.23387     1.54263     3.41565
    13.10000    88.76619   358.45743     3.41577    91.23381     1.54257     3.41577
    13.20000    88.76624   358.45750     3.41588    91.23376     1.54250     3.41588
    13.30000    88.76630   358.45756     3.41599    91.23370     1.54244     3.41599
    13.40000    88.76635   358.45762     3.41610    91.23365     1.54238     3.41610
    13.50000    88.76641   358.45768     3.41622    91.23359     1.54232     3.41622
    13.60000    88.76646   358.45775     3.41633    91.23354     1.54225     3.41633
    13.70000    88.76652   358.45781     3.41644    91.23348     1.54219     3.41644
    13.80000    88.76657   358.45787     3.41656    91.23343     1.54213     3.41656
    13.90000    88.76663   358.45793     3.41667    91.23337     1.54207     3.41667
    14.00000    88.76668   358.45800     3.41678    91.23332     1.54200     3.41678
    14.10000    88.76674   358.45806     3.41689    91.23326     1.54194     3.41689
    14.20000    88.76679   358.45812     3.41701    91.23321     1.54188     3.41701
    14.30000    88.76685   358.45818     3.41712    91.23315     1.54182     3.41712
    14.40000    88.76690   358.45824     3.41723    91.23310     1.54176     3.41723
    14.50000    88.76696   358.45831     3.41734    91.23304     1.54169     3.41734
    14.60000    88.76701   358.45837     3.41745    91.23299     1.54163     3.41745
    14.70000    88.76707   358.45843     3.41757    91.23293     1.54157     3.41757
    14.80000    88.76712   358.45849     3.41768    91.23288     1.54151     3.41768
    14.90000    88.76717   358.45855     3.41779    91.23283     1.54145     3.41779
    15.00000    88.76723   358.45862     3.41790    91.23277     1.54138     3.41790
    15.10000    88.76728   358.45868     3.41802    91.23272     1.54132     3.41802
    15.20000    88.76734   358.45874     3.41813    91.23266     1.54126     3.41813
    15.30000    88.76739   358.45880     3.41824    91.23261     1.54120     3.41824
    15.40000    88.76745   358.45887     3.41835    91.23255     1.54113     3.41835
    15.50000    88.76750   358.45893     3.41846    91.23250     1.54107     3.41846
    15.60000    88.76756   358.45899     3.41858    91.23244     1.54101     3.41858
    15.70000    88.76761   358.45905     3.41869    91.23239     1.54095     3.41869
    15.80000    88.76767   358.45911     3.41880    91.23233     1.54089     3.41880
    15.90000    88.76772   358.45918     3.41891    91.23228     1.54082     3.41891
    16.00000    88.76778   358.45924     3.41902    91.23222     1.54076     3.41902
    16.10000    88.76783   358.45930     3.41914    91.23217     1.54070     3.41914
    16.20000    88.76788   358.45936     3.41925    91.23212     1.54064     3.41925
    16.30000    88.76794   358.45942     3.41936    91.23206     1.54058     3.41936
    16.40000    88.76799   358.45949     3.41947    91.23201     1.54051     3.41947
    16.50000    88.76805   358.45955     3.41958    91.23195     1.54045     3.41958
    16.60000    88.76810   358.45961     3.41969    91.23190     1.54039     3.41969
    16.70000    88.76816   358.45967     3.41981    91.23184     1.54033     3.41981
    16.80000    88.76821   358.45973     3.41992    91.23179     1.54027     3.41992
    16.90000    88.76827   358.45979     3.42003    91.23173     1.54021     3.42003
    17.00000    88.76832   358.45986     3.42014    91.23168     1.54014     3.42014
    17.10000    88.76838   358.45992     3.42025    91.23162     1.54008     3.42025
    17.20000    88.76843   358.45998     3.42036    91.23157     1.54002     3.42036
    17.30000    88.76848   358.46004     3.42048    91.23152     1.53996     3.42048
    17.40000    88.76854   358.46010     3.42059    91.23146     1.53990     3.42059
    17.50000    88.76859   358.46017     3.42070    91.23141     1.53983     3.42070
    17.60000    88.76865   358.46023     3.42081    91.23135     1.53977     3.42081
    17.70000    88.76870   358.46029     3.42092    91.23130     1.53971     3.42092
    17.80000    88.76876   358.46035     3.42103    91.23124     1.53965     3.42103
    17.90000    88.76881   358.46041     3.42114    91.23119     1.53959     3.42114
    18.00000    88.76887   358.46047     3.42125    91.23113     1.53953     3.42125
    18.10000    88.76892   358.46054     3.42137    91.23108     1.53946     3.42137
    18.20000    88.76897   358.46060     3.42148    91.23103     1.53940     3.42148
    18.30000    88.76903   358.46066     3.42159    91.23097     1.53934     3.42159
    18.40000    88.76908   358.46072     3.42170    91.23092     1.53928     3.42170
    18.50000    88.76914   358.46078     3.42181    91.23086     1.53922     3.42181
    18.60000    88.76919   358.46085     3.42192    91.23081     1.53915     3.42192
    18.70000    88.76925   358.46091     3.42203    91.23075     1.53909     3.42203
    18.80000    88.76930   358.46097     3.42214    91.23070     1.53903     3.42214
    18.90000    88.76935   358.46103     3.42225    91.23065     1.53897     3.42225
    19.00000    88.76941   358.46109     3.42237    91.23059     1.53891     3.42237
    19.10000    88.76946   358.46115     3.42248    91.23054     1.53885     3.42248
    19.20000    88.76952   358.46122     3.42259    91.23048     1.53878     3.42259
    19.30000    88.76957   358.46128     3.42270    91.23043     1.53872     3.42270
    19.40000    88.76963   358.46134     3.42281    91.23037     1.53866     3.42281
    19.50000    88.76968   358.46140     3.42292    91.23032     1.53860     3.42292
    19.60000    88.76973   358.46146     3.42303    91.23027     1.53854     3.42303
    19.70000    88.76979   358.46152     3.42314    91.23021     1.53848     3.42314
    19.80000    88.76984   358.46159     3.42325    91.23016     1.53841     3.42325
    19.90000    88.76990   358.46165     3.42336    91.23010     1.53835     3.42336
    20.00000    88.76995   358.46171     3.42347    91.23005     1.53829     3.42347
    20.10000    88.77001   358.46177     3.42358    91.22999     1.53823     3.42358
    20.20000    88.77006   358.46183     3.42369    91.22994     1.53817     3.42369
    20.30000    88.77011   358.46189     3.42381    91.22989     1.53811     3.42381
    20.40000    88.77017   358.46195     3.42392    91.22983     1.53805     3.42392
    20.50000    88.77022   358.46202     3.42403    91.22978     1.53798     3.42403
    20.60000    88.77028   358.46208     3.42414    91.22972     1.53792     3.42414
    20.70000    88.77033   358.46214     3.42425    91.22967     1.53786     3.42425
    20.80000    88.77038   358.46220     3.42436    91.22962     1.53780     3.42436
    20.90000    88.77044   358.46226     3.42447    91.22956     1.53774     3.42447
    21.00000    88.77049   358.46232     3.42458    91.22951     1.53768     3.42458
    21.10000    88.77055   358.46238     3.42469    91.22945     1.53762     3.42469
    21.20000    88.77060   358.46245     3.42480    91.22940     1.53755     3.42480
    21.30000    88.77065   358.46251     3.42491    91.22935     1.53749     3.42491
    21.40000    88.77071   358.46257     3.42502    91.22929     1.53743     3.42502
    21.50000    88.77076   358.46263     3.42513    91.22924     1.53737     3.42513
    21.60000    88.77082   358.46269     3.42524    91.22918     1.53731     3.42524
    21.70000    88.77087   358.46275     3.42535    91.22913     1.53725     3.42535
    21.80000    88.77092   358.46281     3.42546    91.22908     1.53719     3.42546
    21.90000    88.77098   358.46288     3.42557    91.22902     1.53712     3.42557
    22.00000    88.77103   358.46294     3.42568    91.22897     1.53706     3.42568
    22.10000    88.77109   358.46300     3.42579    91.22891     1.53700     3.42579
    22.20000    88.77114   358.46306     3.42590    91.22886     1.53694     3.42590
    22.30000    88.77119   358.46312     3.42601    91.22881     1.53688     3.42601
    22.40000    88.77125   358.46318     3.42612    91.22875     1.53682     3.42612
    22.50000    88.77130   358.46324     3.42623    91.22870     1.53676     3.42623
    22.60000    88.77136   358.46330     3.42634    91.22864     1.53670     3.42634
    22.70000    88.77141   358.46337     3.42645    91.22859     1.53663     3.42645
    22.80000    88.77146   358.46343     3.42656    91.22854     1.53657     3.42656
    22.90000    88.77152   358.46349     3.42667    91.22848     1.53651     3.42667
    23.00000    88.77157   358.46355     3.42678    91.22843     1.53645     3.42678
    23.10000    88.77163   358.46361     3.42689    91.22837     1.53639     3.42689
    23.20000    88.77168   358.46367     3.42700    91.22832     1.53633     3.42700
    23.30000    88.77173   358.46373     3.42711    91.22827     1.53627     3.42711
    23.40000    88.77179   358.46379     3.42722    91.22821     1.53621     3.42722
    23.50000    88.77184   358.46386     3.42733    91.22816     1.53614     3.42733
    23.60000    88.77189   358.46392     3.42744    91.22811     1.53608     3.42744
    23.70000    88.77195   358.46398     3.42755    91.22805     1.53602     3.42755
    23.80000    88.77200   358.46404     3.42766    91.22800     1.53596     3.42766
    23.90000    88.77206   358.46410     3.42777    91.22794     1.53590     3.42777
    24.00000    88.77211   358.46416     3.42788    91.22789     1.53584     3.42788
    24.10000    88.77216   358.46422     3.42798    91.22784     1.53578     3.42798
    24.20000    88.77222   358.46428     3.42809    91.22778     1.53572     3.42809
    24.30000    88.77227   358.46434     3.42820    91.22773     1.53566     3.42820
    24.40000    88.77232   358.46441     3.42831    91.22768     1.53559     3.42831
    24.50000    88.77238   358.46447     3.42842    91.22762     1.53553     3.42842
    24.60000    88.77243   358.46453     3.42853    91.22757     1.53547     3.42853
    24.70000    88.77249   358.46459     3.42864    91.22751     1.53541     3.42864
    24.80000    88.77254   358.46465     3.42875    91.22746     1.53535     3.42875
    24.90000    88.77259   358.46471     3.42886    91.22741     1.53529     3.42886
    25.00000    88.77265   358.46477     3.42897    91.22735     1.53523     3.42897
    25.10000    88.77270   358.46483     3.42908    91.22730     1.53517     3.42908
    25.20000    88.77275   358.46489     3.42919    91.22725     1.53511     3.42919
    25.30000    88.77281   358.46495     3.42930    91.22719     1.53505     3.42930
    25.40000    88.77286   358.46502     3.42940    91.22714     1.53498     3.42940
    25.50000    88.77291   358.46508     3.42951    91.22709     1.53492     3.42951
    25.60000    88.77297   358.46514     3.42962    91.22703     1.53486     3.42962
    25.70000    88.77302   358.46520     3.42973    91.22698     1.53480     3.42973
    25.80000    88.77308   358.46526     3.42984    91.22692     1.53474     3.42984
    25.90000    88.77313   358.46532     3.42995    91.22687     1.53468     3.42995
    26.00000    88.77318   358.46538     3.43006    91.22682     1.53462     3.43006
    26.10000    88.77324   358.46544     3.43017    91.22676     1.53456     3.43017
    26.20000    88.77329   358.46550     3.43028    91.22671     1.53450     3.43028
    26.30000    88.77334   358.46556     3.43038    91.22666     1.53444     3.43038
    26.40000    88.77340   358.46562     3.43049    91.22660     1.53438     3.43049
    26.50000    88.77345   358.46569     3.43060    91.22655     1.53431     3.43060
    26.60000    88.77350   358.46575     3.43071    91.22650     1.53425     3.43071
    26.70000    88.77356   358.46581     3.43082    91.22644     1.53419     3.43082
    26.80000    88.77361   358.46587     3.43093    91.22639     1.53413     3.43093
    26.90000    88.77366   358.46593     3.43104    91.22634     1.53407     3.43104
    27.00000    88.77372   358.46599     3.43114    91.22628     1.53401     3.43114
    27.10000    88.77377   358.46605     3.43125    91.22623     1.53395     3.43125
    27.20000    88.77382   358.46611     3.43136    91.22618     1.53389     3.43136
    27.30000    88.77388   358.46617     3.43147    91.22612     1.53383     3.43147
    27.40000    88.77393   358.46623     3.43158    91.22607     1.53377     3.43158
    27.50000    88.77398   358.46629     3.43169    91.22602     1.53371     3.43169
    27.60000    88.77404   358.46635     3.43180    91.22596     1.53365     3.43180
    27.70000    88.77409   358.46641     3.43190    91.22591     1.53359     3.43190
    27.80000    88.77414   358.46648     3.43201    91.22586     1.53352     3.43201
    27.90000    88.77420   358.46654     3.43212    91.22580     1.53346     3.43212
    28.00000    88.77425   358.46660     3.43223    91.22575     1.53340     3.43223
    28.10000    88.77430   358.46666     3.43234    91.22570     1.53334     3.43234
    28.20000    88.77436   358.46672     3.43244    91.22564     1.53328     3.43244
    28.30000    88.77441   358.46678     3.43255    91.22559     1.53322     3.43255
    28.40000    88.77446   358.46684     3.43266    91.22554     1.53316     3.43266
    28.50000    88.77452   358.46690     3.43277    91.22548     1.53310     3.43277
    28.60000    88.77457   358.46696     3.43288    91.22543     1.53304     3.43288
    28.70000    88.77462   358.46702     3.43299    91.22538     1.53298     3.43299
    28.80000    88.77468   358.46708     3.43309    91.22532     1.53292     3.43309
    28.90000    88.77473   358.46714     3.43320    91.22527     1.53286     3.43320
    29.00000    88.77478   358.46720     3.43331    91.22522     1.53280     3.43331
    29.10000    88.77484   358.46726     3.43342    91.22516     1.53274     3.43342
    29.20000    88.77489   358.46732     3.43353    91.22511     1.53268     3.43353
    29.30000    88.77494   358.46738     3.43363    91.22506     1.53262     3.43363
    29.40000    88.77500   358.46744     3.43374    91.22500     1.53256     3.43374
    29.50000    88.77505   358.46750     3.43385    91.22495     1.53250     3.43385
    29.60000    88.77510   358.46757     3.43396    91.22490     1.53243     3.43396
    29.70000    88.77516   358.46763     3.43406    91.22484     1.53237     3.43406
    29.80000    88.77521   358.46769     3.43417    91.22479     1.53231     3.43417
    29.90000    88.77526   358.46775     3.43428    91.22474     1.53225     3.43428
    30.00000    88.77532   358.46781     3.43439    91.22468     1.53219     3.43439
    30.10000    88.77537   358.46787     3.43449    91.22463     1.53213     3.43449
    30.20000    88.77542   358.46793     3.43460    91.22458     1.53207     3.43460
    30.30000    88.77547   358.46799     3.43471    91.22453     1.53201     3.43471
    30.40000    88.77553   358.46805     3.43482    91.22447     1.53195     3.43482
    30.50000    88.77558   358.46811     3.43492    91.22442     1.53189     3.43492
    30.60000    88.77563   358.46817     3.43503    91.22437     1.53183     3.43503
    30.70000    88.77569   358.46823     3.43514    91.22431     1.53177     3.43514
    30.80000    88.77574   358.46829     3.43525    91.22426     1.53171     3.43525
    30.90000    88.77579   358.46835     3.43535    91.22421     1.53165     3.43535
    31.00000    88.77585   358.46841     3.43546    91.22415     1.53159     3.43546
    31.10000    88.77590   358.46847     3.43557    91.22410     1.53153     3.43557
    31.20000    88.77595   358.46853     3.43568    91.22405     1.53147     3.43568
    31.30000    88.77600   358.46859     3.43578    91.22400     1.53141     3.43578
    31.40000    88.77606   358.46865     3.43589    91.22394     1.53135     3.43589
    31.50000    88.77611   358.46871     3.43600    91.22389     1.53129     3.43600
    31.60000    88.77616   358.46877     3.43611    91.22384     1.53123     3.43611
    31.70000    88.77622   358.46883     3.43621    91.22378     1.53117     3.43621
    31.80000    88.77627   358.46889     3.43632    91.22373     1.53111     3.43632
    31.90000    88.77632   358.46895     3.43643    91.22368     1.53105     3.43643
    32.00000    88.77638   358.46901     3.43653    91.22362     1.53099     3.43653
    32.10000    88.77643   358.46907     3.43664    91.22357     1.53093     3.43664
    32.20000    88.77648   358.46913     3.43675    91.22352     1.53087     3.43675
    32.30000    88.77653   358.46919     3.43685    91.22347     1.53081     3.43685
    32.40000    88.77659   358.46925     3.43696    91.22341     1.53075     3.43696
    32.50000    88.77664   358.46931     3.43707    91.22336     1.53069     3.43707
    32.60000    88.77669   358.46937     3.43718    91.22331     1.53063     3.43718
    32.70000    88.77675   358.46943     3.43728    91.22325     1.53057     3.43728
    32.80000    88.77680   358.46949     3.43739    91.22320     1.53051     3.43739
    32.90000    88.77685   358.46955     3.43750    91.22315     1.53045     3.43750
    33.00000    88.77690   358.46962     3.43760    91.22310     1.53038     3.43760
    33.10000    88.77696   358.46968     3.43771    91.22304     1.53032     3.43771
    33.20000    88.77701   358.46974     3.43782    91.22299     1.53026     3.43782
    33.30000    88.77706   358.46980     3.43792    91.22294     1.53020     3.43792
    33.40000    88.77711   358.46986     3.43803    91.22289     1.53014     3.43803
    33.50000    88.77717   358.46992     3.43814    91.22283     1.53008     3.43814
    33.60000    88.77722   358.46998     3.43824    91.22278     1.53002     3.43824
    33.70000    88.77727   358.47004     3.43835    91.22273     1.52996     3.43835
    33.80000    88.77733   358.47010     3.43846    91.22267     1.52990     3.43846
    33.90000    88.77738   358.47016     3.43856    91.22262     1.52984     3.43856
    34.00000    88.77743   358.47022     3.43867    91.22257     1.52978     3.43867
    34.10000    88.77748   358.47028     3.43877    91.22252     1.52972     3.43877
    34.20000    88.77754   358.47034     3.43888    91.22246     1.52966     3.43888
    34.30000    88.77759   358.47040     3.43899    91.22241     1.52960     3.43899
    34.40000    88.77764   358.47046     3.43909    91.22236     1.52954     3.43909
    34.50000    88.77769   358.47052     3.43920    91.22231     1.52948     3.43920
    34.60000    88.77775   358.47058     3.43931    91.22225     1.52942     3.43931
    34.70000    88.77780   358.47064     3.43941    91.22220     1.52936     3.43941
    34.80000    88.77785   358.47069     3.43952    91.22215     1.52931     3.43952
    34.90000    88.77790   358.47075     3.43962    91.22210     1.52925     3.43962
    35.00000    88.77796   358.47081     3.43973    91.22204     1.52919     3.43973
    35.10000    88.77801   358.47087     3.43984    91.22199     1.52913     3.43984
    35.20000    88.77806   358.47093     3.43994    91.22194     1.52907     3.43994
    35.30000    88.77812   358.47099     3.44005    91.22188     1.52901     3.44005
    35.40000    88.77817   358.47105     3.44016    91.22183     1.52895     3.44016
    35.50000    88.77822   358.47111     3.44026    91.22178     1.52889     3.44026
    35.60000    88.77827   358.47117     3.44037    91.22173     1.52883     3.44037
    35.70000    88.77833   358.47123     3.44047    91.22167     1.52877     3.44047
    35.80000    88.77838   358.47129     3.44058    91.22162     1.52871     3.44058
    35.90000    88.77843   358.47135     3.44069    91.22157     1.52865     3.44069
    36.00000    88.77848   358.47141     3.44079    91.22152     1.52859     3.44079
    36.10000    88.77854   358.47147     3.44090    91.22146     1.52853     3.44090
    36.20000    88.77859   358.47153     3.44100    91.22141     1.52847     3.44100
    36.30000    88.77864   358.47159     3.44111    91.22136     1.52841     3.44111
    36.40000    88.77869   358.47165     3.44121    91.22131     1.52835     3.44121
    36.50000    88.77875   358.47171     3.44132    91.22125     1.52829     3.44132
    36.60000    88.77880   358.47177     3.44143    91.22120     1.52823     3.44143
    36.70000    88.77885   358.47183     3.44153    91.22115     1.52817     3.44153
    36.80000    88.77890   358.47189     3.44164    91.22110     1.52811     3.44164
    36.90000    88.77895   358.47195     3.44174    91.22105     1.52805     3.44174
    37.00000    88.77901   358.47201     3.44185    91.22099     1.52799     3.44185
    37.10000    88.77906   358.47207     3.44195    91.22094     1.52793     3.44195
    37.20000    88.77911   358.47213     3.44206    91.22089     1.52787     3.44206
    37.30000    88.77916   358.47219     3.44216    91.22084     1.52781     3.44216
    37.40000    88.77922   358.47225     3.44227    91.22078     1.52775     3.44227
    37.50000    88.77927   358.47231     3.44238    91.22073     1.52769     3.44238
    37.60000    88.77932   358.47237     3.44248    91.22068     1.52763     3.44248
    37.70000    88.77937   358.47243     3.44259    91.22063     1.52757     3.44259
    37.80000    88.77943   358.47249     3.44269    91.22057     1.52751     3.44269
    37.90000    88.77948   358.47255     3.44280    91.22052     1.52745     3.44280
    38.00000    88.77953   358.47261     3.44290    91.22047     1.52739     3.44290
    38.10000    88.77958   358.47267     3.44301    91.22042     1.52733     3.44301
    38.20000    88.77963   358.47272     3.44311    91.22037     1.52728     3.44311
    38.30000    88.77969   358.47278     3.44322    91.22031     1.52722     3.44322
    38.40000    88.77974   358.47284     3.44332    91.22026     1.52716     3.44332
    38.50000    88.77979   358.47290     3.44343    91.22021     1.52710     3.44343
    38.60000    88.77984   358.47296     3.44353    91.22016     1.52704     3.44353
    38.70000    88.77990   358.47302     3.44364    91.22010     1.52698     3.44364
    38.80000    88.77995   358.47308     3.44374    91.22005     1.52692     3.44374
    38.90000    88.78000   358.47314     3.44385    91.22000     1.52686     3.44385
    39.00000    88.78005   358.47320     3.44395    91.21995     1.52680     3.44395
    39.10000    88.78010   358.47326     3.44406    91.21990     1.52674     3.44406
    39.20000    88.78016   358.47332     3.44416    91.21984     1.52668     3.44416
    39.30000    88.78021   358.47338     3.44427    91.21979     1.52662     3.44427
    39.40000    88.78026   358.47344     3.44437    91.21974     1.52656     3.44437
    39.50000    88.78031   358.47350     3.44448    91.21969     1.52650     3.44448
    39.60000    88.78037   358.47356     3.44458    91.21963     1.52644     3.44458
    39.70000    88.78042   358.47362     3.44469    91.21958     1.52638     3.44469
    39.80000    88.78047   358.47368     3.44479    91.21953     1.52632     3.44479
    39.90000    88.78052   358.47373     3.44490    91.21948     1.52627     3.44490
    40.00000    88.78057   358.47379     3.44500    91.21943     1.52621     3.44500
