 # applied field (T), theta (degree), phi (degree), abs for RE 1-2
     0.00000    90.00000   219.74544     3.62780    90.00000   229.43000     3.61263
     0.10000    90.00000   193.69553     4.38943    90.00000   198.03407     3.47116
     0.20000    90.00000   180.00000     4.51431    90.00000   180.00000     3.44593
     0.30000    90.00000   180.00000     4.51420    90.00000   180.00000     3.44592
     0.40000    90.00000   180.00000     4.51408    90.00000   180.00000     3.44591
     0.50000    90.00000   180.00000     4.51397    90.00000   180.00000     3.44590
     0.60000    90.00000   180.00000     4.51386    90.00000   180.00000     3.44590
     0.70000    90.00000   180.00000     4.51374    90.00000   180.00000     3.44589
     0.80000    90.00000   180.00000     4.51363    90.00000   180.00000     3.44588
     0.90000    90.00000   180.00000     4.51351    90.00000   180.00000     3.44587
     1.00000    90.00000   180.00000     4.51340    90.00000   180.00000     3.44586
     1.10000    90.00000   180.00000     4.51328    90.00000   180.00000     3.44586
     1.20000    90.00000   180.00000     4.51317    90.00000   180.00000     3.44585
     1.30000    90.00000   180.00000     4.51305    90.00000   180.00000     3.44584
     1.40000    90.00000   180.00000     4.51294    90.00000   180.00000     3.44583
     1.50000    90.00000   180.00000     4.51282    90.00000   180.00000     3.44582
     1.60000    90.00000   180.00000     4.51271    90.00000   180.00000     3.44582
     1.70000    90.00000   180.00000     4.51259    90.00000   180.00000     3.44581
     1.80000    90.00000   180.00000     4.51248    90.00000   180.00000     3.44580
     1.90000    90.00000   180.00000     4.51237    90.00000   180.00000     3.44579
     2.00000    90.00000   180.00000     4.51225    90.00000   180.00000     3.44578
     2.10000    90.00000   180.00000     4.51214    90.00000   180.00000     3.44578
     2.20000    90.00000   180.00000     4.51202    90.00000   180.00000     3.44577
     2.30000    90.00000   180.00000     4.51191    90.00000   180.00000     3.44576
     2.40000    90.00000   180.00000     4.51179    90.00000   180.00000     3.44575
     2.50000    90.00000   180.00000     4.51168    90.00000   180.00000     3.44574
     2.60000    90.00000   180.00000     4.51156    90.00000   180.00000     3.44573
     2.70000    90.00000   180.00000     4.51145    90.00000   180.00000     3.44573
     2.80000    90.00000   180.00000     4.51133    90.00000   180.00000     3.44572
     2.90000    90.00000   180.00000     4.51122    90.00000   180.00000     3.44571
     3.00000    90.00000   180.00000     4.51110    90.00000   180.00000     3.44570
     3.10000    90.00000   180.00000     4.51099    90.00000   180.00000     3.44569
     3.20000    90.00000   180.00000     4.51087    90.00000   180.00000     3.44568
     3.30000    90.00000   180.00000     4.51076    90.00000   180.00000     3.44568
     3.40000    90.00000   180.00000     4.51064    90.00000   180.00000     3.44567
     3.50000    90.00000   180.00000     4.51053    90.00000   180.00000     3.44566
     3.60000    90.00000   180.00000     4.51042    90.00000   180.00000     3.44565
     3.70000    90.00000   180.00000     4.51030    90.00000   180.00000     3.44564
     3.80000    90.00000   180.00000     4.51019    90.00000   180.00000     3.44563
     3.90000    90.00000   180.00000     4.51007    90.00000   180.00000     3.44562
     4.00000    90.00000   180.00000     4.50996    90.00000   180.00000     3.44562
     4.10000    90.00000   180.00000     4.50984    90.00000   180.00000     3.44561
     4.20000    90.00000   180.00000     4.50973    90.00000   180.00000     3.44560
     4.30000    90.00000   180.00000     4.50961    90.00000   180.00000     3.44559
     4.40000    90.00000   180.00000     4.50950    90.00000   180.00000     3.44558
     4.50000    90.00000   180.00000     4.50938    90.00000   180.00000     3.44557
     4.60000    90.00000   180.00000     4.50927    90.00000   180.00000     3.44556
     4.70000    90.00000   180.00000     4.50915    90.00000   180.00000     3.44555
     4.80000    90.00000   180.00000     4.50904    90.00000   180.00000     3.44555
     4.90000    90.00000   180.00000     4.50892    90.00000   180.00000     3.44554
     5.00000    90.00000   180.00000     4.50881    90.00000   180.00000     3.44553
     5.10000    90.00000   180.00000     4.50869    90.00000   180.00000     3.44552
     5.20000    90.00000   180.00000     4.50858    90.00000   180.00000     3.44551
     5.30000    90.00000   180.00000     4.50846    90.00000   180.00000     3.44550
     5.40000    90.00000   180.00000     4.50835    90.00000   180.00000     3.44549
     5.50000    90.00000   180.00000     4.50824    90.00000   180.00000     3.44548
     5.60000    90.00000   180.00000     4.50812    90.00000   180.00000     3.44548
     5.70000    90.00000   180.00000     4.50801    90.00000   180.00000     3.44547
     5.80000    90.00000   180.00000     4.50789    90.00000   180.00000     3.44546
     5.90000    90.00000   180.00000     4.50778    90.00000   180.00000     3.44545
     6.00000    90.00000   180.00000     4.50766    90.00000   180.00000     3.44544
     6.10000    90.00000   180.00000     4.50755    90.00000   180.00000     3.44543
     6.20000    90.00000   180.00000     4.50743    90.00000   180.00000     3.44542
     6.30000    90.00000   180.00000     4.50732    90.00000   180.00000     3.44541
     6.40000    90.00000   180.00000     4.50720    90.00000   180.00000     3.44540
     6.50000    90.00000   180.00000     4.50709    90.00000   180.00000     3.44539
     6.60000    90.00000   180.00000     4.50697    90.00000   180.00000     3.44539
     6.70000    90.00000   180.00000     4.50686    90.00000   180.00000     3.44538
     6.80000    90.00000   180.00000     4.50674    90.00000   180.00000     3.44537
     6.90000    90.00000   180.00000     4.50663    90.00000   180.00000     3.44536
     7.00000    90.00000   180.00000     4.50651    90.00000   180.00000     3.44535
     7.10000    90.00000   180.00000     4.50640    90.00000   180.00000     3.44534
     7.20000    90.00000   180.00000     4.50628    90.00000   180.00000     3.44533
     7.30000    90.00000   180.00000     4.50617    90.00000   180.00000     3.44532
     7.40000    90.00000   180.00000     4.50605    90.00000   180.00000     3.44531
     7.50000    90.00000   180.00000     4.50594    90.00000   180.00000     3.44530
     7.60000    90.00000   180.00000     4.50582    90.00000   180.00000     3.44529
     7.70000    90.00000   180.00000     4.50571    90.00000   180.00000     3.44528
     7.80000    90.00000   180.00000     4.50559    90.00000   180.00000     3.44527
     7.90000    90.00000   180.00000     4.50548    90.00000   180.00000     3.44527
     8.00000    90.00000   180.00000     4.50536    90.00000   180.00000     3.44526
     8.10000    90.00000   180.00000     4.50525    90.00000   180.00000     3.44525
     8.20000    90.00000   180.00000     4.50513    90.00000   180.00000     3.44524
     8.30000    90.00000   180.00000     4.50502    90.00000   180.00000     3.44523
     8.40000    90.00000   180.00000     4.50490    90.00000   180.00000     3.44522
     8.50000    90.00000   180.00000     4.50479    90.00000   180.00000     3.44521
     8.60000    90.00000   180.00000     4.50468    90.00000   180.00000     3.44520
     8.70000    90.00000   180.00000     4.50456    90.00000   180.00000     3.44519
     8.80000    90.00000   180.00000     4.50445    90.00000   180.00000     3.44518
     8.90000    90.00000   180.00000     4.50433    90.00000   180.00000     3.44517
     9.00000    90.00000   180.00000     4.50422    90.00000   180.00000     3.44516
     9.10000    90.00000   180.00000     4.50410    90.00000   180.00000     3.44515
     9.20000    90.00000   180.00000     4.50399    90.00000   180.00000     3.44514
     9.30000    90.00000   180.00000     4.50387    90.00000   180.00000     3.44513
     9.40000    90.00000   180.00000     4.50376    90.00000   180.00000     3.44512
     9.50000    90.00000   180.00000     4.50364    90.00000   180.00000     3.44511
     9.60000    90.00000   180.00000     4.50353    90.00000   180.00000     3.44510
     9.70000    90.00000   180.00000     4.50341    90.00000   180.00000     3.44509
     9.80000    90.00000   180.00000     4.50330    90.00000   180.00000     3.44508
     9.90000    90.00000   180.00000     4.50318    90.00000   180.00000     3.44507
    10.00000    90.00000   180.00000     4.50307    90.00000   180.00000     3.44506
    10.10000    90.00000   180.00000     4.50295    90.00000   180.00000     3.44505
    10.20000    90.00000   180.00000     4.50284    90.00000   180.00000     3.44504
    10.30000    90.00000   180.00000     4.50272    90.00000   180.00000     3.44503
    10.40000    90.00000   180.00000     4.50261    90.00000   180.00000     3.44502
    10.50000    90.00000   180.00000     4.50249    90.00000   180.00000     3.44502
    10.60000    90.00000   180.00000     4.50238    90.00000   180.00000     3.44501
    10.70000    90.00000   180.00000     4.50226    90.00000   180.00000     3.44500
    10.80000    90.00000   180.00000     4.50215    90.00000   180.00000     3.44499
    10.90000    90.00000   180.00000     4.50203    90.00000   180.00000     3.44498
    11.00000    90.00000   180.00000     4.50192    90.00000   180.00000     3.44497
    11.10000    90.00000   180.00000     4.50180    90.00000   180.00000     3.44496
    11.20000    90.00000   180.00000     4.50169    90.00000   180.00000     3.44495
    11.30000    90.00000   180.00000     4.50157    90.00000   180.00000     3.44494
    11.40000    90.00000   180.00000     4.50146    90.00000   180.00000     3.44493
    11.50000    90.00000   180.00000     4.50134    90.00000   180.00000     3.44492
    11.60000    90.00000   180.00000     4.50123    90.00000   180.00000     3.44491
    11.70000    90.00000   180.00000     4.50111    90.00000   180.00000     3.44490
    11.80000    90.00000   180.00000     4.50100    90.00000   180.00000     3.44488
    11.90000    90.00000   180.00000     4.50088    90.00000   180.00000     3.44487
    12.00000    90.00000   180.00000     4.50077    90.00000   180.00000     3.44486
    12.10000    90.00000   180.00000     4.50065    90.00000   180.00000     3.44485
    12.20000    90.00000   180.00000     4.50054    90.00000   180.00000     3.44484
    12.30000    90.00000   180.00000     4.50042    90.00000   180.00000     3.44483
    12.40000    90.00000   180.00000     4.50031    90.00000   180.00000     3.44482
    12.50000    90.00000   180.00000     4.50019    90.00000   180.00000     3.44481
    12.60000    90.00000   180.00000     4.50008    90.00000   180.00000     3.44480
    12.70000    90.00000   180.00000     4.49996    90.00000   180.00000     3.44479
    12.80000    90.00000   180.00000     4.49985    90.00000   180.00000     3.44478
    12.90000    90.00000   180.00000     4.49973    90.00000   180.00000     3.44477
    13.00000    90.00000   180.00000     4.49962    90.00000   180.00000     3.44476
    13.10000    90.00000   180.00000     4.49950    90.00000   180.00000     3.44475
    13.20000    90.00000   180.00000     4.49939    90.00000   180.00000     3.44474
    13.30000    90.00000   180.00000     4.49927    90.00000   180.00000     3.44473
    13.40000    90.00000   180.00000     4.49916    90.00000   180.00000     3.44472
    13.50000    90.00000   180.00000     4.49904    90.00000   180.00000     3.44471
    13.60000    90.00000   180.00000     4.49893    90.00000   180.00000     3.44470
    13.70000    90.00000   180.00000     4.49881    90.00000   180.00000     3.44469
    13.80000    90.00000   180.00000     4.49870    90.00000   180.00000     3.44468
    13.90000    90.00000   180.00000     4.49858    90.00000   180.00000     3.44467
    14.00000    90.00000   180.00000     4.49847    90.00000   180.00000     3.44466
    14.10000    90.00000   180.00000     4.49835    90.00000   180.00000     3.44465
    14.20000    90.00000   180.00000     4.49824    90.00000   180.00000     3.44464
    14.30000    90.00000   180.00000     4.49812    90.00000   180.00000     3.44463
    14.40000    90.00000   180.00000     4.49801    90.00000   180.00000     3.44461
    14.50000    90.00000   180.00000     4.49789    90.00000   180.00000     3.44460
    14.60000    90.00000   180.00000     4.49778    90.00000   180.00000     3.44459
    14.70000    90.00000   180.00000     4.49766    90.00000   180.00000     3.44458
    14.80000    90.00000   180.00000     4.49755    90.00000   180.00000     3.44457
    14.90000    90.00000   180.00000     4.49743    90.00000   180.00000     3.44456
    15.00000    90.00000   180.00000     4.49731    90.00000   180.00000     3.44455
    15.10000    90.00000   180.00000     4.49720    90.00000   180.00000     3.44454
    15.20000    90.00000   180.00000     4.49708    90.00000   180.00000     3.44453
    15.30000    90.00000   180.00000     4.49697    90.00000   180.00000     3.44452
    15.40000    90.00000   180.00000     4.49685    90.00000   180.00000     3.44451
    15.50000    90.00000   180.00000     4.49674    90.00000   180.00000     3.44450
    15.60000    90.00000   180.00000     4.49662    90.00000   180.00000     3.44449
    15.70000    90.00000   180.00000     4.49651    90.00000   180.00000     3.44447
    15.80000    90.00000   180.00000     4.49639    90.00000   180.00000     3.44446
    15.90000    90.00000   180.00000     4.49628    90.00000   180.00000     3.44445
    16.00000    90.00000   180.00000     4.49616    90.00000   180.00000     3.44444
    16.10000    90.00000   180.00000     4.49605    90.00000   180.00000     3.44443
    16.20000    90.00000   180.00000     4.49593    90.00000   180.00000     3.44442
    16.30000    90.00000   180.00000     4.49582    90.00000   180.00000     3.44441
    16.40000    90.00000   180.00000     4.49570    90.00000   180.00000     3.44440
    16.50000    90.00000   180.00000     4.49559    90.00000   180.00000     3.44439
    16.60000    90.00000   180.00000     4.49547    90.00000   180.00000     3.44438
    16.70000    90.00000   180.00000     4.49536    90.00000   180.00000     3.44436
    16.80000    90.00000   180.00000     4.49524    90.00000   180.00000     3.44435
    16.90000    90.00000   180.00000     4.49513    90.00000   180.00000     3.44434
    17.00000    90.00000   180.00000     4.49501    90.00000   180.00000     3.44433
    17.10000    90.00000   180.00000     4.49490    90.00000   180.00000     3.44432
    17.20000    90.00000   180.00000     4.49478    90.00000   180.00000     3.44431
    17.30000    90.00000   180.00000     4.49467    90.00000   180.00000     3.44430
    17.40000    90.00000   180.00000     4.49455    90.00000   180.00000     3.44429
    17.50000    90.00000   180.00000     4.49444    90.00000   180.00000     3.44428
    17.60000    90.00000   180.00000     4.49432    90.00000   180.00000     3.44426
    17.70000    90.00000   180.00000     4.49420    90.00000   180.00000     3.44425
    17.80000    90.00000   180.00000     4.49409    90.00000   180.00000     3.44424
    17.90000    90.00000   180.00000     4.49397    90.00000   180.00000     3.44423
    18.00000    90.00000   180.00000     4.49386    90.00000   180.00000     3.44422
    18.10000    90.00000   180.00000     4.49374    90.00000   180.00000     3.44421
    18.20000    90.00000   180.00000     4.49363    90.00000   180.00000     3.44420
    18.30000    90.00000   180.00000     4.49351    90.00000   180.00000     3.44418
    18.40000    90.00000   180.00000     4.49340    90.00000   180.00000     3.44417
    18.50000    90.00000   180.00000     4.49328    90.00000   180.00000     3.44416
    18.60000    90.00000   180.00000     4.49317    90.00000   180.00000     3.44415
    18.70000    90.00000   180.00000     4.49305    90.00000   180.00000     3.44414
    18.80000    90.00000   180.00000     4.49294    90.00000   180.00000     3.44413
    18.90000    90.00000   180.00000     4.49282    90.00000   180.00000     3.44412
    19.00000    90.00000   180.00000     4.49271    90.00000   180.00000     3.44410
    19.10000    90.00000   180.00000     4.49259    90.00000   180.00000     3.44409
    19.20000    90.00000   180.00000     4.49248    90.00000   180.00000     3.44408
    19.30000    90.00000   180.00000     4.49236    90.00000   180.00000     3.44407
    19.40000    90.00000   180.00000     4.49225    90.00000   180.00000     3.44406
    19.50000    90.00000   180.00000     4.49213    90.00000   180.00000     3.44405
    19.60000    90.00000   180.00000     4.49201    90.00000   180.00000     3.44403
    19.70000    90.00000   180.00000     4.49190    90.00000   180.00000     3.44402
    19.80000    90.00000   180.00000     4.49178    90.00000   180.00000     3.44401
    19.90000    90.00000   180.00000     4.49167    90.00000   180.00000     3.44400
    20.00000    90.00000   180.00000     4.49155    90.00000   180.00000     3.44399
    20.10000    90.00000   180.00000     4.49144    90.00000   180.00000     3.44398
    20.20000    90.00000   180.00000     4.49132    90.00000   180.00000     3.44396
    20.30000    90.00000   180.00000     4.49121    90.00000   180.00000     3.44395
    20.40000    90.00000   180.00000     4.49109    90.00000   180.00000     3.44394
    20.50000    90.00000   180.00000     4.49098    90.00000   180.00000     3.44393
    20.60000    90.00000   180.00000     4.49086    90.00000   180.00000     3.44392
    20.70000    90.00000   180.00000     4.49075    90.00000   180.00000     3.44390
    20.80000    90.00000   180.00000     4.49063    90.00000   180.00000     3.44389
    20.90000    90.00000   180.00000     4.49051    90.00000   180.00000     3.44388
    21.00000    90.00000   180.00000     4.49040    90.00000   180.00000     3.44387
    21.10000    90.00000   180.00000     4.49028    90.00000   180.00000     3.44386
    21.20000    90.00000   180.00000     4.49017    90.00000   180.00000     3.44385
    21.30000    90.00000   180.00000     4.49005    90.00000   180.00000     3.44383
    21.40000    90.00000   180.00000     4.48994    90.00000   180.00000     3.44382
    21.50000    90.00000   180.00000     4.48982    90.00000   180.00000     3.44381
    21.60000    90.00000   180.00000     4.48971    90.00000   180.00000     3.44380
    21.70000    90.00000   180.00000     4.48959    90.00000   180.00000     3.44378
    21.80000    90.00000   180.00000     4.48948    90.00000   180.00000     3.44377
    21.90000    90.00000   180.00000     4.48936    90.00000   180.00000     3.44376
    22.00000    90.00000   180.00000     4.48925    90.00000   180.00000     3.44375
    22.10000    90.00000   180.00000     4.48913    90.00000   180.00000     3.44374
    22.20000    90.00000   180.00000     4.48901    90.00000   180.00000     3.44372
    22.30000    90.00000   180.00000     4.48890    90.00000   180.00000     3.44371
    22.40000    90.00000   180.00000     4.48878    90.00000   180.00000     3.44370
    22.50000    90.00000   180.00000     4.48867    90.00000   180.00000     3.44369
    22.60000    90.00000   180.00000     4.48855    90.00000   180.00000     3.44368
    22.70000    90.00000   180.00000     4.48844    90.00000   180.00000     3.44366
    22.80000    90.00000   180.00000     4.48832    90.00000   180.00000     3.44365
    22.90000    90.00000   180.00000     4.48821    90.00000   180.00000     3.44364
    23.00000    90.00000   180.00000     4.48809    90.00000   180.00000     3.44363
    23.10000    90.00000   180.00000     4.48797    90.00000   180.00000     3.44361
    23.20000    90.00000   180.00000     4.48786    90.00000   180.00000     3.44360
    23.30000    90.00000   180.00000     4.48774    90.00000   180.00000     3.44359
    23.40000    90.00000   180.00000     4.48763    90.00000   180.00000     3.44358
    23.50000    90.00000   180.00000     4.48751    90.00000   180.00000     3.44356
    23.60000    90.00000   180.00000     4.48740    90.00000   180.00000     3.44355
    23.70000    90.00000   180.00000     4.48728    90.00000   180.00000     3.44354
    23.80000    90.00000   180.00000     4.48717    90.00000   180.00000     3.44353
    23.90000    90.00000   180.00000     4.48705    90.00000   180.00000     3.44351
    24.00000    90.00000   180.00000     4.48693    90.00000   180.00000     3.44350
    24.10000    90.00000   180.00000     4.48682    90.00000   180.00000     3.44349
    24.20000    90.00000   180.00000     4.48670    90.00000   180.00000     3.44348
    24.30000    90.00000   180.00000     4.48659    90.00000   180.00000     3.44346
    24.40000    90.00000   180.00000     4.48647    90.00000   180.00000     3.44345
    24.50000    90.00000   180.00000     4.48636    90.00000   180.00000     3.44344
    24.60000    90.00000   180.00000     4.48624    90.00000   180.00000     3.44343
    24.70000    90.00000   180.00000     4.48613    90.00000   180.00000     3.44341
    24.80000    90.00000   180.00000     4.48601    90.00000   180.00000     3.44340
    24.90000    90.00000   180.00000     4.48589    90.00000   180.00000     3.44339
    25.00000    90.00000   180.00000     4.48578    90.00000   180.00000     3.44338
    25.10000    90.00000   180.00000     4.48566    90.00000   180.00000     3.44336
    25.20000    90.00000   180.00000     4.48555    90.00000   180.00000     3.44335
    25.30000    90.00000   180.00000     4.48543    90.00000   180.00000     3.44334
    25.40000    90.00000   180.00000     4.48532    90.00000   180.00000     3.44332
    25.50000    90.00000   180.00000     4.48520    90.00000   180.00000     3.44331
    25.60000    90.00000   180.00000     4.48508    90.00000   180.00000     3.44330
    25.70000    90.00000   180.00000     4.48497    90.00000   180.00000     3.44329
    25.80000    90.00000   180.00000     4.48485    90.00000   180.00000     3.44327
    25.90000    90.00000   180.00000     4.48474    90.00000   180.00000     3.44326
    26.00000    90.00000   180.00000     4.48462    90.00000   180.00000     3.44325
    26.10000    90.00000   180.00000     4.48451    90.00000   180.00000     3.44323
    26.20000    90.00000   180.00000     4.48439    90.00000   180.00000     3.44322
    26.30000    90.00000   180.00000     4.48427    90.00000   180.00000     3.44321
    26.40000    90.00000   180.00000     4.48416    90.00000   180.00000     3.44319
    26.50000    90.00000   180.00000     4.48404    90.00000   180.00000     3.44318
    26.60000    90.00000   180.00000     4.48393    90.00000   180.00000     3.44317
    26.70000    90.00000   180.00000     4.48381    90.00000   180.00000     3.44316
    26.80000    90.00000   180.00000     4.48370    90.00000   180.00000     3.44314
    26.90000    90.00000   180.00000     4.48358    90.00000   180.00000     3.44313
    27.00000    90.00000   180.00000     4.48346    90.00000   180.00000     3.44312
    27.10000    90.00000   180.00000     4.48335    90.00000   180.00000     3.44310
    27.20000    90.00000   180.00000     4.48323    90.00000   180.00000     3.44309
    27.30000    90.00000   180.00000     4.48312    90.00000   180.00000     3.44308
    27.40000    90.00000   180.00000     4.48300    90.00000   180.00000     3.44306
    27.50000    90.00000   180.00000     4.48289    90.00000   180.00000     3.44305
    27.60000    90.00000   180.00000     4.48277    90.00000   180.00000     3.44304
    27.70000    90.00000   180.00000     4.48265    90.00000   180.00000     3.44302
    27.80000    90.00000   180.00000     4.48254    90.00000   180.00000     3.44301
    27.90000    90.00000   180.00000     4.48242    90.00000   180.00000     3.44300
    28.00000    90.00000   180.00000     4.48231    90.00000   180.00000     3.44298
    28.10000    90.00000   180.00000     4.48219    90.00000   180.00000     3.44297
    28.20000    90.00000   180.00000     4.48207    90.00000   180.00000     3.44296
    28.30000    90.00000   180.00000     4.48196    90.00000   180.00000     3.44294
    28.40000    90.00000   180.00000     4.48184    90.00000   180.00000     3.44293
    28.50000    90.00000   180.00000     4.48173    90.00000   180.00000     3.44292
    28.60000    90.00000   180.00000     4.48161    90.00000   180.00000     3.44290
    28.70000    90.00000   180.00000     4.48149    90.00000   180.00000     3.44289
    28.80000    90.00000   180.00000     4.48138    90.00000   180.00000     3.44288
    28.90000    90.00000   180.00000     4.48126    90.00000   180.00000     3.44286
    29.00000    90.00000   180.00000     4.48115    90.00000   180.00000     3.44285
    29.10000    90.00000   180.00000     4.48103    90.00000   180.00000     3.44284
    29.20000    90.00000   180.00000     4.48091    90.00000   180.00000     3.44282
    29.30000    90.00000   180.00000     4.48080    90.00000   180.00000     3.44281
    29.40000    90.00000   180.00000     4.48068    90.00000   180.00000     3.44280
    29.50000    90.00000   180.00000     4.48057    90.00000   180.00000     3.44278
    29.60000    90.00000   180.00000     4.48045    90.00000   180.00000     3.44277
    29.70000    90.00000   180.00000     4.48033    90.00000   180.00000     3.44275
    29.80000    90.00000   180.00000     4.48022    90.00000   180.00000     3.44274
    29.90000    90.00000   180.00000     4.48010    90.00000   180.00000     3.44273
    30.00000    90.00000   180.00000     4.47999    90.00000   180.00000     3.44271
    30.10000    90.00000   180.00000     4.47987    90.00000   180.00000     3.44270
    30.20000    90.00000   180.00000     4.47975    90.00000   180.00000     3.44269
    30.30000    90.00000   180.00000     4.47964    90.00000   180.00000     3.44267
    30.40000    90.00000   180.00000     4.47952    90.00000   180.00000     3.44266
    30.50000    90.00000   180.00000     4.47941    90.00000   180.00000     3.44264
    30.60000    90.00000   180.00000     4.47929    90.00000   180.00000     3.44263
    30.70000    90.00000   180.00000     4.47917    90.00000   180.00000     3.44262
    30.80000    90.00000   180.00000     4.47906    90.00000   180.00000     3.44260
    30.90000    90.00000   180.00000     4.47894    90.00000   180.00000     3.44259
    31.00000    90.00000   180.00000     4.47883    90.00000   180.00000     3.44257
    31.10000    90.00000   180.00000     4.47871    90.00000   180.00000     3.44256
    31.20000    90.00000   180.00000     4.47859    90.00000   180.00000     3.44255
    31.30000    90.00000   180.00000     4.47848    90.00000   180.00000     3.44253
    31.40000    90.00000   180.00000     4.47836    90.00000   180.00000     3.44252
    31.50000    90.00000   180.00000     4.47824    90.00000   180.00000     3.44250
    31.60000    90.00000   180.00000     4.47813    90.00000   180.00000     3.44249
    31.70000    90.00000   180.00000     4.47801    90.00000   180.00000     3.44248
    31.80000    90.00000   180.00000     4.47790    90.00000   180.00000     3.44246
    31.90000    90.00000   180.00000     4.47778    90.00000   180.00000     3.44245
    32.00000    90.00000   180.00000     4.47766    90.00000   180.00000     3.44243
    32.10000    90.00000   180.00000     4.47755    90.00000   180.00000     3.44242
    32.20000    90.00000   180.00000     4.47743    90.00000   180.00000     3.44241
    32.30000    90.00000   180.00000     4.47731    90.00000   180.00000     3.44239
    32.40000    90.00000   180.00000     4.47720    90.00000   180.00000     3.44238
    32.50000    90.00000   180.00000     4.47708    90.00000   180.00000     3.44236
    32.60000    90.00000   180.00000     4.47697    90.00000   180.00000     3.44235
    32.70000    90.00000   180.00000     4.47685    90.00000   180.00000     3.44234
    32.80000    90.00000   180.00000     4.47673    90.00000   180.00000     3.44232
    32.90000    90.00000   180.00000     4.47662    90.00000   180.00000     3.44231
    33.00000    90.00000   180.00000     4.47650    90.00000   180.00000     3.44229
    33.10000    90.00000   180.00000     4.47638    90.00000   180.00000     3.44228
    33.20000    90.00000   180.00000     4.47627    90.00000   180.00000     3.44226
    33.30000    90.00000   180.00000     4.47615    90.00000   180.00000     3.44225
    33.40000    90.00000   180.00000     4.47603    90.00000   180.00000     3.44223
    33.50000    90.00000   180.00000     4.47592    90.00000   180.00000     3.44222
    33.60000    90.00000   180.00000     4.47580    90.00000   180.00000     3.44221
    33.70000    90.00000   180.00000     4.47569    90.00000   180.00000     3.44219
    33.80000    90.00000   180.00000     4.47557    90.00000   180.00000     3.44218
    33.90000    90.00000   180.00000     4.47545    90.00000   180.00000     3.44216
    34.00000    90.00000   180.00000     4.47534    90.00000   180.00000     3.44215
    34.10000    90.00000   180.00000     4.47522    90.00000   180.00000     3.44213
    34.20000    90.00000   180.00000     4.47510    90.00000   180.00000     3.44212
    34.30000    90.00000   180.00000     4.47499    90.00000   180.00000     3.44210
    34.40000    90.00000   180.00000     4.47487    90.00000   180.00000     3.44209
    34.50000    90.00000   180.00000     4.47475    90.00000   180.00000     3.44207
    34.60000    90.00000   180.00000     4.47464    90.00000   180.00000     3.44206
    34.70000    90.00000   180.00000     4.47452    90.00000   180.00000     3.44205
    34.80000    90.00000   180.00000     4.47440    90.00000   180.00000     3.44203
    34.90000    90.00000   180.00000     4.47429    90.00000   180.00000     3.44202
    35.00000    90.00000   180.00000     4.47417    90.00000   180.00000     3.44200
    35.10000    90.00000   180.00000     4.47406    90.00000   180.00000     3.44199
    35.20000    90.00000   180.00000     4.47394    90.00000   180.00000     3.44197
    35.30000    90.00000   180.00000     4.47382    90.00000   180.00000     3.44196
    35.40000    90.00000   180.00000     4.47371    90.00000   180.00000     3.44194
    35.50000    90.00000   180.00000     4.47359    90.00000   180.00000     3.44193
    35.60000    90.00000   180.00000     4.47347    90.00000   180.00000     3.44191
    35.70000    90.00000   180.00000     4.47336    90.00000   180.00000     3.44190
    35.80000    90.00000   180.00000     4.47324    90.00000   180.00000     3.44188
    35.90000    90.00000   180.00000     4.47312    90.00000   180.00000     3.44187
    36.00000    90.00000   180.00000     4.47301    90.00000   180.00000     3.44185
    36.10000    90.00000   180.00000     4.47289    90.00000   180.00000     3.44184
    36.20000    90.00000   180.00000     4.47277    90.00000   180.00000     3.44182
    36.30000    90.00000   180.00000     4.47266    90.00000   180.00000     3.44181
    36.40000    90.00000   180.00000     4.47254    90.00000   180.00000     3.44179
    36.50000    90.00000   180.00000     4.47242    90.00000   180.00000     3.44178
    36.60000    90.00000   180.00000     4.47231    90.00000   180.00000     3.44176
    36.70000    90.00000   180.00000     4.47219    90.00000   180.00000     3.44175
    36.80000    90.00000   180.00000     4.47207    90.00000   180.00000     3.44173
    36.90000    90.00000   180.00000     4.47196    90.00000   180.00000     3.44172
    37.00000    90.00000   180.00000     4.47184    90.00000   180.00000     3.44170
    37.10000    90.00000   180.00000     4.47172    90.00000   180.00000     3.44169
    37.20000    90.00000   180.00000     4.47161    90.00000   180.00000     3.44167
    37.30000    90.00000   180.00000     4.47149    90.00000   180.00000     3.44166
    37.40000    90.00000   180.00000     4.47137    90.00000   180.00000     3.44164
    37.50000    90.00000   180.00000     4.47126    90.00000   180.00000     3.44163
    37.60000    90.00000   180.00000     4.47114    90.00000   180.00000     3.44161
    37.70000    90.00000   180.00000     4.47102    90.00000   180.00000     3.44160
    37.80000    90.00000   180.00000     4.47091    90.00000   180.00000     3.44158
    37.90000    90.00000   180.00000     4.47079    90.00000   180.00000     3.44157
    38.00000    90.00000   180.00000     4.47067    90.00000   180.00000     3.44155
    38.10000    90.00000   180.00000     4.47056    90.00000   180.00000     3.44154
    38.20000    90.00000   180.00000     4.47044    90.00000   180.00000     3.44152
    38.30000    90.00000   180.00000     4.47032    90.00000   180.00000     3.44150
    38.40000    90.00000   180.00000     4.47021    90.00000   180.00000     3.44149
    38.50000    90.00000   180.00000     4.47009    90.00000   180.00000     3.44147
    38.60000    90.00000   180.00000     4.46997    90.00000   180.00000     3.44146
    38.70000    90.00000   180.00000     4.46986    90.00000   180.00000     3.44144
    38.80000    90.00000   180.00000     4.46974    90.00000   180.00000     3.44143
    38.90000    90.00000   180.00000     4.46962    90.00000   180.00000     3.44141
    39.00000    90.00000   180.00000     4.46951    90.00000   180.00000     3.44140
    39.10000    90.00000   180.00000     4.46939    90.00000   180.00000     3.44138
    39.20000    90.00000   180.00000     4.46927    90.00000   180.00000     3.44137
    39.30000    90.00000   180.00000     4.46916    90.00000   180.00000     3.44135
    39.40000    90.00000   180.00000     4.46904    90.00000   180.00000     3.44133
    39.50000    90.00000   180.00000     4.46893    90.00000   180.00000     3.44132
    39.60000    90.00000   180.00000     4.46881    90.00000   180.00000     3.44130
    39.70000    90.00000   180.00000     4.46869    90.00000   180.00000     3.44129
    39.80000    90.00000   180.00000     4.46858    90.00000   180.00000     3.44127
    39.90000    90.00000   180.00000     4.46846    90.00000   180.00000     3.44126
    40.00000    90.00000   180.00000     4.46834    90.00000   180.00000     3.44124
