 # applied field (T), theta (degree), phi (degree), abs for RE 3-4
     0.00000    90.00000    37.94816     3.55889    90.00000    52.05184     3.55889
     0.10000    90.00000    37.94845     3.55900    90.00000    52.05155     3.55900
     0.20000    90.00000    37.94873     3.55911    90.00000    52.05127     3.55911
     0.30000    90.00000    37.94902     3.55921    90.00000    52.05098     3.55921
     0.40000    90.00000    37.94930     3.55932    90.00000    52.05070     3.55932
     0.50000    90.00000    37.94959     3.55943    90.00000    52.05041     3.55943
     0.60000    90.00000    37.94987     3.55954    90.00000    52.05013     3.55954
     0.70000    90.00000    37.95015     3.55964    90.00000    52.04985     3.55964
     0.80000    90.00000    37.95044     3.55975    90.00000    52.04956     3.55975
     0.90000    90.00000    37.95072     3.55986    90.00000    52.04928     3.55986
     1.00000    90.00000    37.95101     3.55997    90.00000    52.04899     3.55997
     1.10000    90.00000    37.95129     3.56007    90.00000    52.04871     3.56007
     1.20000    90.00000    37.95157     3.56018    90.00000    52.04843     3.56018
     1.30000    90.00000    37.95186     3.56029    90.00000    52.04814     3.56029
     1.40000    90.00000    37.95214     3.56039    90.00000    52.04786     3.56039
     1.50000    90.00000    37.95243     3.56050    90.00000    52.04757     3.56050
     1.60000    90.00000    37.95271     3.56061    90.00000    52.04729     3.56061
     1.70000    90.00000    37.95299     3.56072    90.00000    52.04701     3.56072
     1.80000    90.00000    37.95328     3.56082    90.00000    52.04672     3.56082
     1.90000    90.00000    37.95356     3.56093    90.00000    52.04644     3.56093
     2.00000    90.00000    37.95384     3.56104    90.00000    52.04616     3.56104
     2.10000    90.00000    37.95413     3.56114    90.00000    52.04587     3.56114
     2.20000    90.00000    37.95441     3.56125    90.00000    52.04559     3.56125
     2.30000    90.00000    37.95469     3.56136    90.00000    52.04531     3.56136
     2.40000    90.00000    37.95498     3.56146    90.00000    52.04502     3.56146
     2.50000    90.00000    37.95526     3.56157    90.00000    52.04474     3.56157
     2.60000    90.00000    37.95554     3.56168    90.00000    52.04446     3.56168
     2.70000    90.00000    37.95583     3.56178    90.00000    52.04417     3.56178
     2.80000    90.00000    37.95611     3.56189    90.00000    52.04389     3.56189
     2.90000    90.00000    37.95639     3.56200    90.00000    52.04361     3.56200
     3.00000    90.00000    37.95668     3.56210    90.00000    52.04332     3.56210
     3.10000    90.00000    37.95696     3.56221    90.00000    52.04304     3.56221
     3.20000    90.00000    37.95724     3.56232    90.00000    52.04276     3.56232
     3.30000    90.00000    37.95753     3.56242    90.00000    52.04247     3.56242
     3.40000    90.00000    37.95781     3.56253    90.00000    52.04219     3.56253
     3.50000    90.00000    37.95809     3.56264    90.00000    52.04191     3.56264
     3.60000    90.00000    37.95838     3.56274    90.00000    52.04162     3.56274
     3.70000    90.00000    37.95866     3.56285    90.00000    52.04134     3.56285
     3.80000    90.00000    37.95894     3.56296    90.00000    52.04106     3.56296
     3.90000    90.00000    37.95922     3.56306    90.00000    52.04078     3.56306
     4.00000    90.00000    37.95951     3.56317    90.00000    52.04049     3.56317
     4.10000    90.00000    37.95979     3.56327    90.00000    52.04021     3.56327
     4.20000    90.00000    37.96007     3.56338    90.00000    52.03993     3.56338
     4.30000    90.00000    37.96035     3.56349    90.00000    52.03965     3.56349
     4.40000    90.00000    37.96064     3.56359    90.00000    52.03936     3.56359
     4.50000    90.00000    37.96092     3.56370    90.00000    52.03908     3.56370
     4.60000    90.00000    37.96120     3.56381    90.00000    52.03880     3.56381
     4.70000    90.00000    37.96148     3.56391    90.00000    52.03852     3.56391
     4.80000    90.00000    37.96177     3.56402    90.00000    52.03823     3.56402
     4.90000    90.00000    37.96205     3.56412    90.00000    52.03795     3.56412
     5.00000    90.00000    37.96233     3.56423    90.00000    52.03767     3.56423
     5.10000    90.00000    37.96261     3.56434    90.00000    52.03739     3.56434
     5.20000    90.00000    37.96290     3.56444    90.00000    52.03710     3.56444
     5.30000    90.00000    37.96318     3.56455    90.00000    52.03682     3.56455
     5.40000    90.00000    37.96346     3.56465    90.00000    52.03654     3.56465
     5.50000    90.00000    37.96374     3.56476    90.00000    52.03626     3.56476
     5.60000    90.00000    37.96402     3.56487    90.00000    52.03598     3.56487
     5.70000    90.00000    37.96431     3.56497    90.00000    52.03569     3.56497
     5.80000    90.00000    37.96459     3.56508    90.00000    52.03541     3.56508
     5.90000    90.00000    37.96487     3.56518    90.00000    52.03513     3.56518
     6.00000    90.00000    37.96515     3.56529    90.00000    52.03485     3.56529
     6.10000    90.00000    37.96543     3.56539    90.00000    52.03457     3.56539
     6.20000    90.00000    37.96571     3.56550    90.00000    52.03429     3.56550
     6.30000    90.00000    37.96600     3.56561    90.00000    52.03400     3.56561
     6.40000    90.00000    37.96628     3.56571    90.00000    52.03372     3.56571
     6.50000    90.00000    37.96656     3.56582    90.00000    52.03344     3.56582
     6.60000    90.00000    37.96684     3.56592    90.00000    52.03316     3.56592
     6.70000    90.00000    37.96712     3.56603    90.00000    52.03288     3.56603
     6.80000    90.00000    37.96740     3.56613    90.00000    52.03260     3.56613
     6.90000    90.00000    37.96768     3.56624    90.00000    52.03232     3.56624
     7.00000    90.00000    37.96797     3.56634    90.00000    52.03203     3.56634
     7.10000    90.00000    37.96825     3.56645    90.00000    52.03175     3.56645
     7.20000    90.00000    37.96853     3.56656    90.00000    52.03147     3.56656
     7.30000    90.00000    37.96881     3.56666    90.00000    52.03119     3.56666
     7.40000    90.00000    37.96909     3.56677    90.00000    52.03091     3.56677
     7.50000    90.00000    37.96937     3.56687    90.00000    52.03063     3.56687
     7.60000    90.00000    37.96965     3.56698    90.00000    52.03035     3.56698
     7.70000    90.00000    37.96993     3.56708    90.00000    52.03007     3.56708
     7.80000    90.00000    37.97021     3.56719    90.00000    52.02979     3.56719
     7.90000    90.00000    37.97050     3.56729    90.00000    52.02950     3.56729
     8.00000    90.00000    37.97078     3.56740    90.00000    52.02922     3.56740
     8.10000    90.00000    37.97106     3.56750    90.00000    52.02894     3.56750
     8.20000    90.00000    37.97134     3.56761    90.00000    52.02866     3.56761
     8.30000    90.00000    37.97162     3.56771    90.00000    52.02838     3.56771
     8.40000    90.00000    37.97190     3.56782    90.00000    52.02810     3.56782
     8.50000    90.00000    37.97218     3.56792    90.00000    52.02782     3.56792
     8.60000    90.00000    37.97246     3.56803    90.00000    52.02754     3.56803
     8.70000    90.00000    37.97274     3.56813    90.00000    52.02726     3.56813
     8.80000    90.00000    37.97302     3.56824    90.00000    52.02698     3.56824
     8.90000    90.00000    37.97330     3.56834    90.00000    52.02670     3.56834
     9.00000    90.00000    37.97358     3.56845    90.00000    52.02642     3.56845
     9.10000    90.00000    37.97386     3.56855    90.00000    52.02614     3.56855
     9.20000    90.00000    37.97414     3.56866    90.00000    52.02586     3.56866
     9.30000    90.00000    37.97442     3.56876    90.00000    52.02558     3.56876
     9.40000    90.00000    37.97470     3.56887    90.00000    52.02530     3.56887
     9.50000    90.00000    37.97498     3.56897    90.00000    52.02502     3.56897
     9.60000    90.00000    37.97526     3.56908    90.00000    52.02474     3.56908
     9.70000    90.00000    37.97554     3.56918    90.00000    52.02446     3.56918
     9.80000    90.00000    37.97582     3.56929    90.00000    52.02418     3.56929
     9.90000    90.00000    37.97610     3.56939    90.00000    52.02390     3.56939
    10.00000    90.00000    37.97638     3.56950    90.00000    52.02362     3.56950
    10.10000    90.00000    37.97666     3.56960    90.00000    52.02334     3.56960
    10.20000    90.00000    37.97694     3.56970    90.00000    52.02306     3.56970
    10.30000    90.00000    37.97722     3.56981    90.00000    52.02278     3.56981
    10.40000    90.00000    37.97750     3.56991    90.00000    52.02250     3.56991
    10.50000    90.00000    37.97778     3.57002    90.00000    52.02222     3.57002
    10.60000    90.00000    37.97806     3.57012    90.00000    52.02194     3.57012
    10.70000    90.00000    37.97834     3.57023    90.00000    52.02166     3.57023
    10.80000    90.00000    37.97862     3.57033    90.00000    52.02138     3.57033
    10.90000    90.00000    37.97890     3.57044    90.00000    52.02110     3.57044
    11.00000    90.00000    37.97918     3.57054    90.00000    52.02082     3.57054
    11.10000    90.00000    37.97946     3.57064    90.00000    52.02054     3.57064
    11.20000    90.00000    37.97974     3.57075    90.00000    52.02026     3.57075
    11.30000    90.00000    37.98002     3.57085    90.00000    52.01998     3.57085
    11.40000    90.00000    37.98030     3.57096    90.00000    52.01970     3.57096
    11.50000    90.00000    37.98058     3.57106    90.00000    52.01942     3.57106
    11.60000    90.00000    37.98086     3.57116    90.00000    52.01914     3.57116
    11.70000    90.00000    37.98113     3.57127    90.00000    52.01887     3.57127
    11.80000    90.00000    37.98141     3.57137    90.00000    52.01859     3.57137
    11.90000    90.00000    37.98169     3.57148    90.00000    52.01831     3.57148
    12.00000    90.00000    37.98197     3.57158    90.00000    52.01803     3.57158
    12.10000    90.00000    37.98225     3.57168    90.00000    52.01775     3.57168
    12.20000    90.00000    37.98253     3.57179    90.00000    52.01747     3.57179
    12.30000    90.00000    37.98281     3.57189    90.00000    52.01719     3.57189
    12.40000    90.00000    37.98309     3.57200    90.00000    52.01691     3.57200
    12.50000    90.00000    37.98337     3.57210    90.00000    52.01663     3.57210
    12.60000    90.00000    37.98365     3.57220    90.00000    52.01635     3.57220
    12.70000    90.00000    37.98392     3.57231    90.00000    52.01608     3.57231
    12.80000    90.00000    37.98420     3.57241    90.00000    52.01580     3.57241
    12.90000    90.00000    37.98448     3.57252    90.00000    52.01552     3.57252
    13.00000    90.00000    37.98476     3.57262    90.00000    52.01524     3.57262
    13.10000    90.00000    37.98504     3.57272    90.00000    52.01496     3.57272
    13.20000    90.00000    37.98532     3.57283    90.00000    52.01468     3.57283
    13.30000    90.00000    37.98559     3.57293    90.00000    52.01441     3.57293
    13.40000    90.00000    37.98587     3.57303    90.00000    52.01413     3.57303
    13.50000    90.00000    37.98615     3.57314    90.00000    52.01385     3.57314
    13.60000    90.00000    37.98643     3.57324    90.00000    52.01357     3.57324
    13.70000    90.00000    37.98671     3.57334    90.00000    52.01329     3.57334
    13.80000    90.00000    37.98699     3.57345    90.00000    52.01301     3.57345
    13.90000    90.00000    37.98726     3.57355    90.00000    52.01274     3.57355
    14.00000    90.00000    37.98754     3.57366    90.00000    52.01246     3.57366
    14.10000    90.00000    37.98782     3.57376    90.00000    52.01218     3.57376
    14.20000    90.00000    37.98810     3.57386    90.00000    52.01190     3.57386
    14.30000    90.00000    37.98838     3.57397    90.00000    52.01162     3.57397
    14.40000    90.00000    37.98865     3.57407    90.00000    52.01135     3.57407
    14.50000    90.00000    37.98893     3.57417    90.00000    52.01107     3.57417
    14.60000    90.00000    37.98921     3.57428    90.00000    52.01079     3.57428
    14.70000    90.00000    37.98949     3.57438    90.00000    52.01051     3.57438
    14.80000    90.00000    37.98977     3.57448    90.00000    52.01023     3.57448
    14.90000    90.00000    37.99004     3.57458    90.00000    52.00996     3.57458
    15.00000    90.00000    37.99032     3.57469    90.00000    52.00968     3.57469
    15.10000    90.00000    37.99060     3.57479    90.00000    52.00940     3.57479
    15.20000    90.00000    37.99088     3.57489    90.00000    52.00912     3.57489
    15.30000    90.00000    37.99115     3.57500    90.00000    52.00885     3.57500
    15.40000    90.00000    37.99143     3.57510    90.00000    52.00857     3.57510
    15.50000    90.00000    37.99171     3.57520    90.00000    52.00829     3.57520
    15.60000    90.00000    37.99199     3.57531    90.00000    52.00801     3.57531
    15.70000    90.00000    37.99226     3.57541    90.00000    52.00774     3.57541
    15.80000    90.00000    37.99254     3.57551    90.00000    52.00746     3.57551
    15.90000    90.00000    37.99282     3.57562    90.00000    52.00718     3.57562
    16.00000    90.00000    37.99309     3.57572    90.00000    52.00691     3.57572
    16.10000    90.00000    37.99337     3.57582    90.00000    52.00663     3.57582
    16.20000    90.00000    37.99365     3.57592    90.00000    52.00635     3.57592
    16.30000    90.00000    37.99393     3.57603    90.00000    52.00607     3.57603
    16.40000    90.00000    37.99420     3.57613    90.00000    52.00580     3.57613
    16.50000    90.00000    37.99448     3.57623    90.00000    52.00552     3.57623
    16.60000    90.00000    37.99476     3.57633    90.00000    52.00524     3.57633
    16.70000    90.00000    37.99503     3.57644    90.00000    52.00497     3.57644
    16.80000    90.00000    37.99531     3.57654    90.00000    52.00469     3.57654
    16.90000    90.00000    37.99559     3.57664    90.00000    52.00441     3.57664
    17.00000    90.00000    37.99586     3.57675    90.00000    52.00414     3.57675
    17.10000    90.00000    37.99614     3.57685    90.00000    52.00386     3.57685
    17.20000    90.00000    37.99642     3.57695    90.00000    52.00358     3.57695
    17.30000    90.00000    37.99669     3.57705    90.00000    52.00331     3.57705
    17.40000    90.00000    37.99697     3.57716    90.00000    52.00303     3.57716
    17.50000    90.00000    37.99725     3.57726    90.00000    52.00275     3.57726
    17.60000    90.00000    37.99752     3.57736    90.00000    52.00248     3.57736
    17.70000    90.00000    37.99780     3.57746    90.00000    52.00220     3.57746
    17.80000    90.00000    37.99807     3.57756    90.00000    52.00193     3.57756
    17.90000    90.00000    37.99835     3.57767    90.00000    52.00165     3.57767
    18.00000    90.00000    37.99863     3.57777    90.00000    52.00137     3.57777
    18.10000    90.00000    37.99890     3.57787    90.00000    52.00110     3.57787
    18.20000    90.00000    37.99918     3.57797    90.00000    52.00082     3.57797
    18.30000    90.00000    37.99946     3.57808    90.00000    52.00054     3.57808
    18.40000    90.00000    37.99973     3.57818    90.00000    52.00027     3.57818
    18.50000    90.00000    38.00001     3.57828    90.00000    51.99999     3.57828
    18.60000    90.00000    38.00028     3.57838    90.00000    51.99972     3.57838
    18.70000    90.00000    38.00056     3.57848    90.00000    51.99944     3.57848
    18.80000    90.00000    38.00084     3.57859    90.00000    51.99916     3.57859
    18.90000    90.00000    38.00111     3.57869    90.00000    51.99889     3.57869
    19.00000    90.00000    38.00139     3.57879    90.00000    51.99861     3.57879
    19.10000    90.00000    38.00166     3.57889    90.00000    51.99834     3.57889
    19.20000    90.00000    38.00194     3.57899    90.00000    51.99806     3.57899
    19.30000    90.00000    38.00221     3.57910    90.00000    51.99779     3.57910
    19.40000    90.00000    38.00249     3.57920    90.00000    51.99751     3.57920
    19.50000    90.00000    38.00277     3.57930    90.00000    51.99723     3.57930
    19.60000    90.00000    38.00304     3.57940    90.00000    51.99696     3.57940
    19.70000    90.00000    38.00332     3.57950    90.00000    51.99668     3.57950
    19.80000    90.00000    38.00359     3.57961    90.00000    51.99641     3.57961
    19.90000    90.00000    38.00387     3.57971    90.00000    51.99613     3.57971
    20.00000    90.00000    38.00414     3.57981    90.00000    51.99586     3.57981
    20.10000    90.00000    38.00442     3.57991    90.00000    51.99558     3.57991
    20.20000    90.00000    38.00469     3.58001    90.00000    51.99531     3.58001
    20.30000    90.00000    38.00497     3.58011    90.00000    51.99503     3.58011
    20.40000    90.00000    38.00524     3.58022    90.00000    51.99476     3.58022
    20.50000    90.00000    38.00552     3.58032    90.00000    51.99448     3.58032
    20.60000    90.00000    38.00579     3.58042    90.00000    51.99421     3.58042
    20.70000    90.00000    38.00607     3.58052    90.00000    51.99393     3.58052
    20.80000    90.00000    38.00634     3.58062    90.00000    51.99366     3.58062
    20.90000    90.00000    38.00662     3.58072    90.00000    51.99338     3.58072
    21.00000    90.00000    38.00689     3.58083    90.00000    51.99311     3.58083
    21.10000    90.00000    38.00717     3.58093    90.00000    51.99283     3.58093
    21.20000    90.00000    38.00744     3.58103    90.00000    51.99256     3.58103
    21.30000    90.00000    38.00772     3.58113    90.00000    51.99228     3.58113
    21.40000    90.00000    38.00799     3.58123    90.00000    51.99201     3.58123
    21.50000    90.00000    38.00827     3.58133    90.00000    51.99173     3.58133
    21.60000    90.00000    38.00854     3.58143    90.00000    51.99146     3.58143
    21.70000    90.00000    38.00882     3.58153    90.00000    51.99118     3.58153
    21.80000    90.00000    38.00909     3.58164    90.00000    51.99091     3.58164
    21.90000    90.00000    38.00936     3.58174    90.00000    51.99064     3.58174
    22.00000    90.00000    38.00964     3.58184    90.00000    51.99036     3.58184
    22.10000    90.00000    38.00991     3.58194    90.00000    51.99009     3.58194
    22.20000    90.00000    38.01019     3.58204    90.00000    51.98981     3.58204
    22.30000    90.00000    38.01046     3.58214    90.00000    51.98954     3.58214
    22.40000    90.00000    38.01074     3.58224    90.00000    51.98926     3.58224
    22.50000    90.00000    38.01101     3.58234    90.00000    51.98899     3.58234
    22.60000    90.00000    38.01128     3.58244    90.00000    51.98872     3.58244
    22.70000    90.00000    38.01156     3.58255    90.00000    51.98844     3.58255
    22.80000    90.00000    38.01183     3.58265    90.00000    51.98817     3.58265
    22.90000    90.00000    38.01211     3.58275    90.00000    51.98789     3.58275
    23.00000    90.00000    38.01238     3.58285    90.00000    51.98762     3.58285
    23.10000    90.00000    38.01265     3.58295    90.00000    51.98735     3.58295
    23.20000    90.00000    38.01293     3.58305    90.00000    51.98707     3.58305
    23.30000    90.00000    38.01320     3.58315    90.00000    51.98680     3.58315
    23.40000    90.00000    38.01348     3.58325    90.00000    51.98652     3.58325
    23.50000    90.00000    38.01375     3.58335    90.00000    51.98625     3.58335
    23.60000    90.00000    38.01402     3.58345    90.00000    51.98598     3.58345
    23.70000    90.00000    38.01430     3.58355    90.00000    51.98570     3.58355
    23.80000    90.00000    38.01457     3.58365    90.00000    51.98543     3.58365
    23.90000    90.00000    38.01484     3.58375    90.00000    51.98516     3.58375
    24.00000    90.00000    38.01512     3.58386    90.00000    51.98488     3.58386
    24.10000    90.00000    38.01539     3.58396    90.00000    51.98461     3.58396
    24.20000    90.00000    38.01566     3.58406    90.00000    51.98434     3.58406
    24.30000    90.00000    38.01594     3.58416    90.00000    51.98406     3.58416
    24.40000    90.00000    38.01621     3.58426    90.00000    51.98379     3.58426
    24.50000    90.00000    38.01648     3.58436    90.00000    51.98352     3.58436
    24.60000    90.00000    38.01676     3.58446    90.00000    51.98324     3.58446
    24.70000    90.00000    38.01703     3.58456    90.00000    51.98297     3.58456
    24.80000    90.00000    38.01730     3.58466    90.00000    51.98270     3.58466
    24.90000    90.00000    38.01758     3.58476    90.00000    51.98242     3.58476
    25.00000    90.00000    38.01785     3.58486    90.00000    51.98215     3.58486
    25.10000    90.00000    38.01812     3.58496    90.00000    51.98188     3.58496
    25.20000    90.00000    38.01839     3.58506    90.00000    51.98161     3.58506
    25.30000    90.00000    38.01867     3.58516    90.00000    51.98133     3.58516
    25.40000    90.00000    38.01894     3.58526    90.00000    51.98106     3.58526
    25.50000    90.00000    38.01921     3.58536    90.00000    51.98079     3.58536
    25.60000    90.00000    38.01949     3.58546    90.00000    51.98051     3.58546
    25.70000    90.00000    38.01976     3.58556    90.00000    51.98024     3.58556
    25.80000    90.00000    38.02003     3.58566    90.00000    51.97997     3.58566
    25.90000    90.00000    38.02030     3.58576    90.00000    51.97970     3.58576
    26.00000    90.00000    38.02058     3.58586    90.00000    51.97942     3.58586
    26.10000    90.00000    38.02085     3.58596    90.00000    51.97915     3.58596
    26.20000    90.00000    38.02112     3.58606    90.00000    51.97888     3.58606
    26.30000    90.00000    38.02139     3.58616    90.00000    51.97861     3.58616
    26.40000    90.00000    38.02167     3.58626    90.00000    51.97833     3.58626
    26.50000    90.00000    38.02194     3.58636    90.00000    51.97806     3.58636
    26.60000    90.00000    38.02221     3.58646    90.00000    51.97779     3.58646
    26.70000    90.00000    38.02248     3.58656    90.00000    51.97752     3.58656
    26.80000    90.00000    38.02275     3.58666    90.00000    51.97725     3.58666
    26.90000    90.00000    38.02303     3.58676    90.00000    51.97697     3.58676
    27.00000    90.00000    38.02330     3.58686    90.00000    51.97670     3.58686
    27.10000    90.00000    38.02357     3.58696    90.00000    51.97643     3.58696
    27.20000    90.00000    38.02384     3.58706    90.00000    51.97616     3.58706
    27.30000    90.00000    38.02411     3.58716    90.00000    51.97589     3.58716
    27.40000    90.00000    38.02439     3.58726    90.00000    51.97561     3.58726
    27.50000    90.00000    38.02466     3.58736    90.00000    51.97534     3.58736
    27.60000    90.00000    38.02493     3.58746    90.00000    51.97507     3.58746
    27.70000    90.00000    38.02520     3.58756    90.00000    51.97480     3.58756
    27.80000    90.00000    38.02547     3.58766    90.00000    51.97453     3.58766
    27.90000    90.00000    38.02575     3.58776    90.00000    51.97425     3.58776
    28.00000    90.00000    38.02602     3.58786    90.00000    51.97398     3.58786
    28.10000    90.00000    38.02629     3.58795    90.00000    51.97371     3.58795
    28.20000    90.00000    38.02656     3.58805    90.00000    51.97344     3.58805
    28.30000    90.00000    38.02683     3.58815    90.00000    51.97317     3.58815
    28.40000    90.00000    38.02710     3.58825    90.00000    51.97290     3.58825
    28.50000    90.00000    38.02737     3.58835    90.00000    51.97263     3.58835
    28.60000    90.00000    38.02765     3.58845    90.00000    51.97235     3.58845
    28.70000    90.00000    38.02792     3.58855    90.00000    51.97208     3.58855
    28.80000    90.00000    38.02819     3.58865    90.00000    51.97181     3.58865
    28.90000    90.00000    38.02846     3.58875    90.00000    51.97154     3.58875
    29.00000    90.00000    38.02873     3.58885    90.00000    51.97127     3.58885
    29.10000    90.00000    38.02900     3.58895    90.00000    51.97100     3.58895
    29.20000    90.00000    38.02927     3.58905    90.00000    51.97073     3.58905
    29.30000    90.00000    38.02954     3.58915    90.00000    51.97046     3.58915
    29.40000    90.00000    38.02981     3.58924    90.00000    51.97019     3.58924
    29.50000    90.00000    38.03009     3.58934    90.00000    51.96991     3.58934
    29.60000    90.00000    38.03036     3.58944    90.00000    51.96964     3.58944
    29.70000    90.00000    38.03063     3.58954    90.00000    51.96937     3.58954
    29.80000    90.00000    38.03090     3.58964    90.00000    51.96910     3.58964
    29.90000    90.00000    38.03117     3.58974    90.00000    51.96883     3.58974
    30.00000    90.00000    38.03144     3.58984    90.00000    51.96856     3.58984
    30.10000    90.00000    38.03171     3.58994    90.00000    51.96829     3.58994
    30.20000    90.00000    38.03198     3.59004    90.00000    51.96802     3.59004
    30.30000    90.00000    38.03225     3.59014    90.00000    51.96775     3.59014
    30.40000    90.00000    38.03252     3.59023    90.00000    51.96748     3.59023
    30.50000    90.00000    38.03279     3.59033    90.00000    51.96721     3.59033
    30.60000    90.00000    38.03306     3.59043    90.00000    51.96694     3.59043
    30.70000    90.00000    38.03333     3.59053    90.00000    51.96667     3.59053
    30.80000    90.00000    38.03360     3.59063    90.00000    51.96640     3.59063
    30.90000    90.00000    38.03387     3.59073    90.00000    51.96613     3.59073
    31.00000    90.00000    38.03414     3.59083    90.00000    51.96586     3.59083
    31.10000    90.00000    38.03441     3.59092    90.00000    51.96559     3.59092
    31.20000    90.00000    38.03468     3.59102    90.00000    51.96532     3.59102
    31.30000    90.00000    38.03495     3.59112    90.00000    51.96505     3.59112
    31.40000    90.00000    38.03522     3.59122    90.00000    51.96478     3.59122
    31.50000    90.00000    38.03549     3.59132    90.00000    51.96451     3.59132
    31.60000    90.00000    38.03576     3.59142    90.00000    51.96424     3.59142
    31.70000    90.00000    38.03603     3.59152    90.00000    51.96397     3.59152
    31.80000    90.00000    38.03630     3.59161    90.00000    51.96370     3.59161
    31.90000    90.00000    38.03657     3.59171    90.00000    51.96343     3.59171
    32.00000    90.00000    38.03684     3.59181    90.00000    51.96316     3.59181
    32.10000    90.00000    38.03711     3.59191    90.00000    51.96289     3.59191
    32.20000    90.00000    38.03738     3.59201    90.00000    51.96262     3.59201
    32.30000    90.00000    38.03765     3.59211    90.00000    51.96235     3.59211
    32.40000    90.00000    38.03792     3.59220    90.00000    51.96208     3.59220
    32.50000    90.00000    38.03819     3.59230    90.00000    51.96181     3.59230
    32.60000    90.00000    38.03846     3.59240    90.00000    51.96154     3.59240
    32.70000    90.00000    38.03873     3.59250    90.00000    51.96127     3.59250
    32.80000    90.00000    38.03900     3.59260    90.00000    51.96100     3.59260
    32.90000    90.00000    38.03927     3.59269    90.00000    51.96073     3.59269
    33.00000    90.00000    38.03954     3.59279    90.00000    51.96046     3.59279
    33.10000    90.00000    38.03981     3.59289    90.00000    51.96019     3.59289
    33.20000    90.00000    38.04008     3.59299    90.00000    51.95992     3.59299
    33.30000    90.00000    38.04034     3.59309    90.00000    51.95966     3.59309
    33.40000    90.00000    38.04061     3.59318    90.00000    51.95939     3.59318
    33.50000    90.00000    38.04088     3.59328    90.00000    51.95912     3.59328
    33.60000    90.00000    38.04115     3.59338    90.00000    51.95885     3.59338
    33.70000    90.00000    38.04142     3.59348    90.00000    51.95858     3.59348
    33.80000    90.00000    38.04169     3.59358    90.00000    51.95831     3.59358
    33.90000    90.00000    38.04196     3.59367    90.00000    51.95804     3.59367
    34.00000    90.00000    38.04223     3.59377    90.00000    51.95777     3.59377
    34.10000    90.00000    38.04250     3.59387    90.00000    51.95750     3.59387
    34.20000    90.00000    38.04277     3.59397    90.00000    51.95723     3.59397
    34.30000    90.00000    38.04303     3.59406    90.00000    51.95697     3.59406
    34.40000    90.00000    38.04330     3.59416    90.00000    51.95670     3.59416
    34.50000    90.00000    38.04357     3.59426    90.00000    51.95643     3.59426
    34.60000    90.00000    38.04384     3.59436    90.00000    51.95616     3.59436
    34.70000    90.00000    38.04411     3.59446    90.00000    51.95589     3.59446
    34.80000    90.00000    38.04438     3.59455    90.00000    51.95562     3.59455
    34.90000    90.00000    38.04464     3.59465    90.00000    51.95536     3.59465
    35.00000    90.00000    38.04491     3.59475    90.00000    51.95509     3.59475
    35.10000    90.00000    38.04518     3.59485    90.00000    51.95482     3.59485
    35.20000    90.00000    38.04545     3.59494    90.00000    51.95455     3.59494
    35.30000    90.00000    38.04572     3.59504    90.00000    51.95428     3.59504
    35.40000    90.00000    38.04599     3.59514    90.00000    51.95401     3.59514
    35.50000    90.00000    38.04625     3.59523    90.00000    51.95375     3.59523
    35.60000    90.00000    38.04652     3.59533    90.00000    51.95348     3.59533
    35.70000    90.00000    38.04679     3.59543    90.00000    51.95321     3.59543
    35.80000    90.00000    38.04706     3.59553    90.00000    51.95294     3.59553
    35.90000    90.00000    38.04733     3.59562    90.00000    51.95267     3.59562
    36.00000    90.00000    38.04759     3.59572    90.00000    51.95241     3.59572
    36.10000    90.00000    38.04786     3.59582    90.00000    51.95214     3.59582
    36.20000    90.00000    38.04813     3.59592    90.00000    51.95187     3.59592
    36.30000    90.00000    38.04840     3.59601    90.00000    51.95160     3.59601
    36.40000    90.00000    38.04867     3.59611    90.00000    51.95133     3.59611
    36.50000    90.00000    38.04893     3.59621    90.00000    51.95107     3.59621
    36.60000    90.00000    38.04920     3.59630    90.00000    51.95080     3.59630
    36.70000    90.00000    38.04947     3.59640    90.00000    51.95053     3.59640
    36.80000    90.00000    38.04974     3.59650    90.00000    51.95026     3.59650
    36.90000    90.00000    38.05000     3.59659    90.00000    51.95000     3.59659
    37.00000    90.00000    38.05027     3.59669    90.00000    51.94973     3.59669
    37.10000    90.00000    38.05054     3.59679    90.00000    51.94946     3.59679
    37.20000    90.00000    38.05081     3.59689    90.00000    51.94919     3.59689
    37.30000    90.00000    38.05107     3.59698    90.00000    51.94893     3.59698
    37.40000    90.00000    38.05134     3.59708    90.00000    51.94866     3.59708
    37.50000    90.00000    38.05161     3.59718    90.00000    51.94839     3.59718
    37.60000    90.00000    38.05187     3.59727    90.00000    51.94813     3.59727
    37.70000    90.00000    38.05214     3.59737    90.00000    51.94786     3.59737
    37.80000    90.00000    38.05241     3.59747    90.00000    51.94759     3.59747
    37.90000    90.00000    38.05268     3.59756    90.00000    51.94732     3.59756
    38.00000    90.00000    38.05294     3.59766    90.00000    51.94706     3.59766
    38.10000    90.00000    38.05321     3.59776    90.00000    51.94679     3.59776
    38.20000    90.00000    38.05348     3.59785    90.00000    51.94652     3.59785
    38.30000    90.00000    38.05374     3.59795    90.00000    51.94626     3.59795
    38.40000    90.00000    38.05401     3.59805    90.00000    51.94599     3.59805
    38.50000    90.00000    38.05428     3.59814    90.00000    51.94572     3.59814
    38.60000    90.00000    38.05454     3.59824    90.00000    51.94546     3.59824
    38.70000    90.00000    38.05481     3.59834    90.00000    51.94519     3.59834
    38.80000    90.00000    38.05508     3.59843    90.00000    51.94492     3.59843
    38.90000    90.00000    38.05534     3.59853    90.00000    51.94466     3.59853
    39.00000    90.00000    38.05561     3.59862    90.00000    51.94439     3.59862
    39.10000    90.00000    38.05588     3.59872    90.00000    51.94412     3.59872
    39.20000    90.00000    38.05614     3.59882    90.00000    51.94386     3.59882
    39.30000    90.00000    38.05641     3.59891    90.00000    51.94359     3.59891
    39.40000    90.00000    38.05667     3.59901    90.00000    51.94333     3.59901
    39.50000    90.00000    38.05694     3.59911    90.00000    51.94306     3.59911
    39.60000    90.00000    38.05721     3.59920    90.00000    51.94279     3.59920
    39.70000    90.00000    38.05747     3.59930    90.00000    51.94253     3.59930
    39.80000    90.00000    38.05774     3.59939    90.00000    51.94226     3.59939
    39.90000    90.00000    38.05801     3.59949    90.00000    51.94199     3.59949
    40.00000    90.00000    38.05827     3.59959    90.00000    51.94173     3.59959
