 # applied field (T), theta (degree), phi (degree), abs [muB/unitcell], abs [T]
       0.00000000       0.00000000       0.00000000      43.98501053       1.47041014
       0.10000000       0.45626576      45.00000000      43.98501700       1.47041036
       0.20000000       0.85559355      45.00000000      43.98503349       1.47041091
       0.30000000       1.31186708      45.00000000      43.98506432       1.47041194
       0.40000000       1.71120609      45.00000000      43.98510236       1.47041321
       0.50000000       2.16749749      45.00000000      43.98515756       1.47041506
       0.60000000       2.56685655      45.00000000      43.98521715       1.47041705
       0.70000000       3.02317593      45.00000000      43.98529672       1.47041971
       0.80000000       3.42256386      45.00000000      43.98537785       1.47042242
       0.90000000       3.87892129      45.00000000      43.98548180       1.47042590
       1.00000000       4.33530312      45.00000000      43.98559867       1.47042980
       1.10000000       4.79171220      45.00000000      43.98572847       1.47043414
       1.20000000       5.19118761      45.00000000      43.98585400       1.47043834
       1.30000000       5.64765539      45.00000000      43.98600815       1.47044349
       1.40000000       6.10415855      45.00000000      43.98617520       1.47044908
       1.50000000      90.00000000      45.00000000      43.99711888       1.47081492
       1.60000000      90.00000000      45.00000000      43.99715862       1.47081625
