 # applied field (T), theta (degree), phi (degree), abs [muB/unitcell], abs [T]
       0.00000000       0.00000000       0.00000000      34.70361609       1.16013498
       0.10000000      90.00000000     360.00000000      34.72148885       1.16073246
       0.20000000      90.00000000     360.00000000      34.72172348       1.16074030
       0.30000000      90.00000000     360.00000000      34.72195809       1.16074814
       0.40000000      90.00000000     360.00000000      34.72219267       1.16075599
       0.50000000      90.00000000     360.00000000      34.72242723       1.16076383
       0.60000000      90.00000000     360.00000000      34.72266177       1.16077167
       0.70000000      90.00000000     360.00000000      34.72289628       1.16077951
       0.80000000      90.00000000     360.00000000      34.72313077       1.16078735
       0.90000000      90.00000000     360.00000000      34.72336523       1.16079518
       1.00000000      90.00000000     360.00000000      34.72359967       1.16080302
       1.10000000      90.00000000     360.00000000      34.72383409       1.16081086
       1.20000000      90.00000000     360.00000000      34.72406849       1.16081869
       1.30000000      90.00000000     360.00000000      34.72430286       1.16082653
       1.40000000      90.00000000     360.00000000      34.72453721       1.16083436
       1.50000000      90.00000000     360.00000000      34.72477153       1.16084220
       1.60000000      90.00000000     360.00000000      34.72500583       1.16085003
       1.70000000      90.00000000     360.00000000      34.72524011       1.16085786
       1.80000000      90.00000000     360.00000000      34.72547437       1.16086569
       1.90000000      90.00000000     360.00000000      34.72570860       1.16087352
       2.00000000      90.00000000     360.00000000      34.72594281       1.16088135
       2.10000000      90.00000000     360.00000000      34.72617699       1.16088918
       2.20000000      90.00000000     360.00000000      34.72641115       1.16089701
       2.30000000      90.00000000     360.00000000      34.72664529       1.16090484
       2.40000000      90.00000000     360.00000000      34.72687940       1.16091266
       2.50000000      90.00000000     360.00000000      34.72711350       1.16092049
       2.60000000      90.00000000     360.00000000      34.72734756       1.16092831
       2.70000000      90.00000000     360.00000000      34.72758161       1.16093614
       2.80000000      90.00000000     360.00000000      34.72781563       1.16094396
       2.90000000      90.00000000     360.00000000      34.72804963       1.16095178
       3.00000000      90.00000000     360.00000000      34.72828360       1.16095961
       3.10000000      90.00000000     360.00000000      34.72851756       1.16096743
       3.20000000      90.00000000     360.00000000      34.72875149       1.16097525
       3.30000000      90.00000000     360.00000000      34.72898539       1.16098307
       3.40000000      90.00000000     360.00000000      34.72921927       1.16099088
       3.50000000      90.00000000     360.00000000      34.72945313       1.16099870
       3.60000000      90.00000000     360.00000000      34.72968697       1.16100652
       3.70000000      90.00000000     360.00000000      34.72992078       1.16101434
       3.80000000      90.00000000     360.00000000      34.73015457       1.16102215
       3.90000000      90.00000000     360.00000000      34.73038834       1.16102997
       4.00000000      90.00000000     360.00000000      34.73062208       1.16103778
       4.10000000      90.00000000     360.00000000      34.73085580       1.16104559
       4.20000000      90.00000000     360.00000000      34.73108950       1.16105341
       4.30000000      90.00000000     360.00000000      34.73132317       1.16106122
       4.40000000      90.00000000     360.00000000      34.73155682       1.16106903
       4.50000000      90.00000000     360.00000000      34.73179045       1.16107684
       4.60000000      90.00000000     360.00000000      34.73202406       1.16108465
       4.70000000      90.00000000     360.00000000      34.73225764       1.16109246
       4.80000000      90.00000000     360.00000000      34.73249120       1.16110026
       4.90000000      90.00000000     360.00000000      34.73272473       1.16110807
       5.00000000      90.00000000     360.00000000      34.73295824       1.16111588
       5.10000000      90.00000000     360.00000000      34.73319173       1.16112368
       5.20000000      90.00000000     360.00000000      34.73342520       1.16113149
       5.30000000      90.00000000     360.00000000      34.73365864       1.16113929
       5.40000000      90.00000000     360.00000000      34.73389206       1.16114709
       5.50000000      90.00000000     360.00000000      34.73412546       1.16115490
       5.60000000      90.00000000     360.00000000      34.73435883       1.16116270
       5.70000000      90.00000000     360.00000000      34.73459219       1.16117050
       5.80000000      90.00000000     360.00000000      34.73482551       1.16117830
       5.90000000      90.00000000     360.00000000      34.73505882       1.16118610
       6.00000000      90.00000000     360.00000000      34.73529210       1.16119390
       6.10000000      90.00000000     360.00000000      34.73552536       1.16120170
       6.20000000      90.00000000     360.00000000      34.73575860       1.16120949
       6.30000000      90.00000000     360.00000000      34.73599181       1.16121729
       6.40000000      90.00000000     360.00000000      34.73622500       1.16122508
       6.50000000      90.00000000     360.00000000      34.73645817       1.16123288
       6.60000000      90.00000000     360.00000000      34.73669131       1.16124067
       6.70000000      90.00000000     360.00000000      34.73692443       1.16124847
       6.80000000      90.00000000     360.00000000      34.73715753       1.16125626
       6.90000000      90.00000000     360.00000000      34.73739061       1.16126405
       7.00000000      90.00000000     360.00000000      34.73762366       1.16127184
       7.10000000      90.00000000     360.00000000      34.73785669       1.16127963
       7.20000000      90.00000000     360.00000000      34.73808970       1.16128742
       7.30000000      90.00000000     360.00000000      34.73832268       1.16129521
       7.40000000      90.00000000     360.00000000      34.73855564       1.16130300
       7.50000000      90.00000000     360.00000000      34.73878858       1.16131078
       7.60000000      90.00000000     360.00000000      34.73902150       1.16131857
       7.70000000      90.00000000     360.00000000      34.73925439       1.16132636
       7.80000000      90.00000000     360.00000000      34.73948726       1.16133414
       7.90000000      90.00000000     360.00000000      34.73972011       1.16134193
       8.00000000      90.00000000     360.00000000      34.73995293       1.16134971
       8.10000000      90.00000000     360.00000000      34.74018574       1.16135749
       8.20000000      90.00000000     360.00000000      34.74041851       1.16136527
       8.30000000      90.00000000     360.00000000      34.74065127       1.16137305
       8.40000000      90.00000000     360.00000000      34.74088400       1.16138083
       8.50000000      90.00000000     360.00000000      34.74111671       1.16138861
       8.60000000      90.00000000     360.00000000      34.74134940       1.16139639
       8.70000000      90.00000000     360.00000000      34.74158207       1.16140417
       8.80000000      90.00000000     360.00000000      34.74181471       1.16141195
       8.90000000      90.00000000     360.00000000      34.74204733       1.16141972
       9.00000000      90.00000000     360.00000000      34.74227993       1.16142750
       9.10000000      90.00000000     360.00000000      34.74251250       1.16143527
       9.20000000      90.00000000     360.00000000      34.74274505       1.16144305
       9.30000000      90.00000000     360.00000000      34.74297758       1.16145082
       9.40000000      90.00000000     360.00000000      34.74321009       1.16145859
       9.50000000      90.00000000     360.00000000      34.74344257       1.16146637
       9.60000000      90.00000000     360.00000000      34.74367503       1.16147414
       9.70000000      90.00000000     360.00000000      34.74390747       1.16148191
       9.80000000      90.00000000     360.00000000      34.74413988       1.16148968
       9.90000000      90.00000000     360.00000000      34.74437228       1.16149745
      10.00000000      90.00000000     360.00000000      34.74460465       1.16150521
      10.10000000      90.00000000     360.00000000      34.74483700       1.16151298
      10.20000000      90.00000000     360.00000000      34.74506932       1.16152075
      10.30000000      90.00000000     360.00000000      34.74530162       1.16152851
      10.40000000      90.00000000     360.00000000      34.74553390       1.16153628
      10.50000000      90.00000000     360.00000000      34.74576616       1.16154404
      10.60000000      90.00000000     360.00000000      34.74599840       1.16155181
      10.70000000      90.00000000     360.00000000      34.74623061       1.16155957
      10.80000000      90.00000000     360.00000000      34.74646280       1.16156733
      10.90000000      90.00000000     360.00000000      34.74669496       1.16157509
      11.00000000      90.00000000     360.00000000      34.74692711       1.16158285
      11.10000000      90.00000000     360.00000000      34.74715923       1.16159061
      11.20000000      90.00000000     360.00000000      34.74739133       1.16159837
      11.30000000      90.00000000     360.00000000      34.74762341       1.16160613
      11.40000000      90.00000000     360.00000000      34.74785546       1.16161389
      11.50000000      90.00000000     360.00000000      34.74808749       1.16162165
      11.60000000      90.00000000     360.00000000      34.74831950       1.16162940
      11.70000000      90.00000000     360.00000000      34.74855149       1.16163716
      11.80000000      90.00000000     360.00000000      34.74878345       1.16164491
      11.90000000      90.00000000     360.00000000      34.74901540       1.16165266
      12.00000000      90.00000000     360.00000000      34.74924732       1.16166042
      12.10000000      90.00000000     360.00000000      34.74947921       1.16166817
      12.20000000      90.00000000     360.00000000      34.74971109       1.16167592
      12.30000000      90.00000000     360.00000000      34.74994294       1.16168367
      12.40000000      90.00000000     360.00000000      34.75017477       1.16169142
      12.50000000      90.00000000     360.00000000      34.75040658       1.16169917
      12.60000000      90.00000000     360.00000000      34.75063836       1.16170692
      12.70000000      90.00000000     360.00000000      34.75087012       1.16171467
      12.80000000      90.00000000     360.00000000      34.75110186       1.16172242
      12.90000000      90.00000000     360.00000000      34.75133358       1.16173016
      13.00000000      90.00000000     360.00000000      34.75156528       1.16173791
      13.10000000      90.00000000     360.00000000      34.75179695       1.16174565
      13.20000000      90.00000000     360.00000000      34.75202860       1.16175340
      13.30000000      90.00000000     360.00000000      34.75226023       1.16176114
      13.40000000      90.00000000     360.00000000      34.75249184       1.16176888
      13.50000000      90.00000000     360.00000000      34.75272342       1.16177662
      13.60000000      90.00000000     360.00000000      34.75295498       1.16178436
      13.70000000      90.00000000     360.00000000      34.75318652       1.16179210
      13.80000000      90.00000000     360.00000000      34.75341804       1.16179984
      13.90000000      90.00000000     360.00000000      34.75364953       1.16180758
      14.00000000      90.00000000     360.00000000      34.75388100       1.16181532
      14.10000000      90.00000000     360.00000000      34.75411245       1.16182306
      14.20000000      90.00000000     360.00000000      34.75434388       1.16183080
      14.30000000      90.00000000     360.00000000      34.75457529       1.16183853
      14.40000000      90.00000000     360.00000000      34.75480667       1.16184627
      14.50000000      90.00000000     360.00000000      34.75503803       1.16185400
      14.60000000      90.00000000     360.00000000      34.75526937       1.16186173
      14.70000000      90.00000000     360.00000000      34.75550069       1.16186947
      14.80000000      90.00000000     360.00000000      34.75573198       1.16187720
      14.90000000      90.00000000     360.00000000      34.75596325       1.16188493
      15.00000000      90.00000000     360.00000000      34.75619450       1.16189266
      15.10000000      90.00000000     360.00000000      34.75642573       1.16190039
      15.20000000      90.00000000     360.00000000      34.75665694       1.16190812
      15.30000000      90.00000000     360.00000000      34.75688812       1.16191585
      15.40000000      90.00000000     360.00000000      34.75711928       1.16192358
      15.50000000      90.00000000     360.00000000      34.75735042       1.16193130
      15.60000000      90.00000000     360.00000000      34.75758154       1.16193903
      15.70000000      90.00000000     360.00000000      34.75781263       1.16194675
      15.80000000      90.00000000     360.00000000      34.75804371       1.16195448
      15.90000000      90.00000000     360.00000000      34.75827476       1.16196220
      16.00000000      90.00000000     360.00000000      34.75850579       1.16196993
      16.10000000      90.00000000     360.00000000      34.75873679       1.16197765
      16.20000000      90.00000000     360.00000000      34.75896778       1.16198537
      16.30000000      90.00000000     360.00000000      34.75919874       1.16199309
      16.40000000      90.00000000     360.00000000      34.75942968       1.16200081
      16.50000000      90.00000000     360.00000000      34.75966060       1.16200853
      16.60000000      90.00000000     360.00000000      34.75989149       1.16201625
      16.70000000      90.00000000     360.00000000      34.76012237       1.16202397
      16.80000000      90.00000000     360.00000000      34.76035322       1.16203169
      16.90000000      90.00000000     360.00000000      34.76058405       1.16203940
      17.00000000      90.00000000     360.00000000      34.76081486       1.16204712
      17.10000000      90.00000000     360.00000000      34.76104564       1.16205483
      17.20000000      90.00000000     360.00000000      34.76127641       1.16206255
      17.30000000      90.00000000     360.00000000      34.76150715       1.16207026
      17.40000000      90.00000000     360.00000000      34.76173787       1.16207797
      17.50000000      90.00000000     360.00000000      34.76196857       1.16208569
      17.60000000      90.00000000     360.00000000      34.76219924       1.16209340
      17.70000000      90.00000000     360.00000000      34.76242990       1.16210111
      17.80000000      90.00000000     360.00000000      34.76266053       1.16210882
      17.90000000      90.00000000     360.00000000      34.76289114       1.16211653
      18.00000000      90.00000000     360.00000000      34.76312173       1.16212424
      18.10000000      90.00000000     360.00000000      34.76335230       1.16213194
      18.20000000      90.00000000     360.00000000      34.76358284       1.16213965
      18.30000000      90.00000000     360.00000000      34.76381336       1.16214736
      18.40000000      90.00000000     360.00000000      34.76404386       1.16215506
      18.50000000      90.00000000     360.00000000      34.76427434       1.16216277
      18.60000000      90.00000000     360.00000000      34.76450480       1.16217047
      18.70000000      90.00000000     360.00000000      34.76473524       1.16217818
      18.80000000      90.00000000     360.00000000      34.76496565       1.16218588
      18.90000000      90.00000000     360.00000000      34.76519604       1.16219358
      19.00000000      90.00000000     360.00000000      34.76542641       1.16220128
      19.10000000      90.00000000     360.00000000      34.76565676       1.16220898
      19.20000000      90.00000000     360.00000000      34.76588708       1.16221668
      19.30000000      90.00000000     360.00000000      34.76611739       1.16222438
      19.40000000      90.00000000     360.00000000      34.76634767       1.16223208
      19.50000000      90.00000000     360.00000000      34.76657793       1.16223978
      19.60000000      90.00000000     360.00000000      34.76680817       1.16224747
      19.70000000      90.00000000     360.00000000      34.76703839       1.16225517
      19.80000000      90.00000000     360.00000000      34.76726858       1.16226287
      19.90000000      90.00000000     360.00000000      34.76749875       1.16227056
      20.00000000      90.00000000     360.00000000      34.76772891       1.16227825
      20.10000000      90.00000000     360.00000000      34.76795903       1.16228595
      20.20000000      90.00000000     360.00000000      34.76818914       1.16229364
      20.30000000      90.00000000     360.00000000      34.76841923       1.16230133
      20.40000000      90.00000000     360.00000000      34.76864929       1.16230902
      20.50000000      90.00000000     360.00000000      34.76887934       1.16231671
      20.60000000      90.00000000     360.00000000      34.76910936       1.16232440
      20.70000000      90.00000000     360.00000000      34.76933936       1.16233209
      20.80000000      90.00000000     360.00000000      34.76956934       1.16233978
      20.90000000      90.00000000     360.00000000      34.76979929       1.16234747
      21.00000000      90.00000000     360.00000000      34.77002923       1.16235515
      21.10000000      90.00000000     360.00000000      34.77025914       1.16236284
      21.20000000      90.00000000     360.00000000      34.77048903       1.16237052
      21.30000000      90.00000000     360.00000000      34.77071890       1.16237821
      21.40000000      90.00000000     360.00000000      34.77094875       1.16238589
      21.50000000      90.00000000     360.00000000      34.77117857       1.16239358
      21.60000000      90.00000000     360.00000000      34.77140838       1.16240126
      21.70000000      90.00000000     360.00000000      34.77163816       1.16240894
      21.80000000      90.00000000     360.00000000      34.77186792       1.16241662
      21.90000000      90.00000000     360.00000000      34.77209766       1.16242430
      22.00000000      90.00000000     360.00000000      34.77232738       1.16243198
      22.10000000      90.00000000     360.00000000      34.77255708       1.16243966
      22.20000000      90.00000000     360.00000000      34.77278675       1.16244734
      22.30000000      90.00000000     360.00000000      34.77301641       1.16245501
      22.40000000      90.00000000     360.00000000      34.77324604       1.16246269
      22.50000000      90.00000000     360.00000000      34.77347565       1.16247037
      22.60000000      90.00000000     360.00000000      34.77370524       1.16247804
      22.70000000      90.00000000     360.00000000      34.77393481       1.16248572
      22.80000000      90.00000000     360.00000000      34.77416435       1.16249339
      22.90000000      90.00000000     360.00000000      34.77439388       1.16250106
      23.00000000      90.00000000     360.00000000      34.77462338       1.16250873
      23.10000000      90.00000000     360.00000000      34.77485286       1.16251641
      23.20000000      90.00000000     360.00000000      34.77508232       1.16252408
      23.30000000      90.00000000     360.00000000      34.77531176       1.16253175
      23.40000000      90.00000000     360.00000000      34.77554118       1.16253942
      23.50000000      90.00000000     360.00000000      34.77577057       1.16254709
      23.60000000      90.00000000     360.00000000      34.77599995       1.16255475
      23.70000000      90.00000000     360.00000000      34.77622930       1.16256242
      23.80000000      90.00000000     360.00000000      34.77645863       1.16257009
      23.90000000      90.00000000     360.00000000      34.77668794       1.16257775
      24.00000000      90.00000000     360.00000000      34.77691723       1.16258542
      24.10000000      90.00000000     360.00000000      34.77714650       1.16259308
      24.20000000      90.00000000     360.00000000      34.77737574       1.16260075
      24.30000000      90.00000000     360.00000000      34.77760497       1.16260841
      24.40000000      90.00000000     360.00000000      34.77783417       1.16261607
      24.50000000      90.00000000     360.00000000      34.77806335       1.16262373
      24.60000000      90.00000000     360.00000000      34.77829251       1.16263139
      24.70000000      90.00000000     360.00000000      34.77852165       1.16263905
      24.80000000      90.00000000     360.00000000      34.77875077       1.16264671
      24.90000000      90.00000000     360.00000000      34.77897987       1.16265437
      25.00000000      90.00000000     360.00000000      34.77920894       1.16266203
      25.10000000      90.00000000     360.00000000      34.77943799       1.16266969
      25.20000000      90.00000000     360.00000000      34.77966703       1.16267734
      25.30000000      90.00000000     360.00000000      34.77989604       1.16268500
      25.40000000      90.00000000     360.00000000      34.78012503       1.16269265
      25.50000000      90.00000000     360.00000000      34.78035400       1.16270031
      25.60000000      90.00000000     360.00000000      34.78058294       1.16270796
      25.70000000      90.00000000     360.00000000      34.78081187       1.16271561
      25.80000000      90.00000000     360.00000000      34.78104077       1.16272327
      25.90000000      90.00000000     360.00000000      34.78126966       1.16273092
      26.00000000      90.00000000     360.00000000      34.78149852       1.16273857
      26.10000000      90.00000000     360.00000000      34.78172736       1.16274622
      26.20000000      90.00000000     360.00000000      34.78195618       1.16275387
      26.30000000      90.00000000     360.00000000      34.78218498       1.16276152
      26.40000000      90.00000000     360.00000000      34.78241376       1.16276917
      26.50000000      90.00000000     360.00000000      34.78264251       1.16277681
      26.60000000      90.00000000     360.00000000      34.78287125       1.16278446
      26.70000000      90.00000000     360.00000000      34.78309996       1.16279211
      26.80000000      90.00000000     360.00000000      34.78332865       1.16279975
      26.90000000      90.00000000     360.00000000      34.78355733       1.16280739
      27.00000000      90.00000000     360.00000000      34.78378598       1.16281504
      27.10000000      90.00000000     360.00000000      34.78401461       1.16282268
      27.20000000      90.00000000     360.00000000      34.78424321       1.16283032
      27.30000000      90.00000000     360.00000000      34.78447180       1.16283797
      27.40000000      90.00000000     360.00000000      34.78470037       1.16284561
      27.50000000      90.00000000     360.00000000      34.78492891       1.16285325
      27.60000000      90.00000000     360.00000000      34.78515744       1.16286089
      27.70000000      90.00000000     360.00000000      34.78538594       1.16286852
      27.80000000      90.00000000     360.00000000      34.78561442       1.16287616
      27.90000000      90.00000000     360.00000000      34.78584288       1.16288380
      28.00000000      90.00000000     360.00000000      34.78607132       1.16289144
      28.10000000      90.00000000     360.00000000      34.78629974       1.16289907
      28.20000000      90.00000000     360.00000000      34.78652814       1.16290671
      28.30000000      90.00000000     360.00000000      34.78675651       1.16291434
      28.40000000      90.00000000     360.00000000      34.78698487       1.16292198
      28.50000000      90.00000000     360.00000000      34.78721320       1.16292961
      28.60000000      90.00000000     360.00000000      34.78744152       1.16293724
      28.70000000      90.00000000     360.00000000      34.78766981       1.16294487
      28.80000000      90.00000000     360.00000000      34.78789808       1.16295251
      28.90000000      90.00000000     360.00000000      34.78812633       1.16296014
      29.00000000      90.00000000     360.00000000      34.78835456       1.16296777
      29.10000000      90.00000000     360.00000000      34.78858277       1.16297539
      29.20000000      90.00000000     360.00000000      34.78881096       1.16298302
      29.30000000      90.00000000     360.00000000      34.78903912       1.16299065
      29.40000000      90.00000000     360.00000000      34.78926727       1.16299828
      29.50000000      90.00000000     360.00000000      34.78949539       1.16300590
      29.60000000      90.00000000     360.00000000      34.78972350       1.16301353
      29.70000000      90.00000000     360.00000000      34.78995158       1.16302115
      29.80000000      90.00000000     360.00000000      34.79017964       1.16302878
      29.90000000      90.00000000     360.00000000      34.79040768       1.16303640
      30.00000000      90.00000000     360.00000000      34.79063570       1.16304402
      30.10000000      90.00000000     360.00000000      34.79086370       1.16305165
      30.20000000      90.00000000     360.00000000      34.79109168       1.16305927
      30.30000000      90.00000000     360.00000000      34.79131964       1.16306689
      30.40000000      90.00000000     360.00000000      34.79154757       1.16307451
      30.50000000      90.00000000     360.00000000      34.79177549       1.16308213
      30.60000000      90.00000000     360.00000000      34.79200339       1.16308974
      30.70000000      90.00000000     360.00000000      34.79223126       1.16309736
      30.80000000      90.00000000     360.00000000      34.79245911       1.16310498
      30.90000000      90.00000000     360.00000000      34.79268695       1.16311260
      31.00000000      90.00000000     360.00000000      34.79291476       1.16312021
      31.10000000      90.00000000     360.00000000      34.79314255       1.16312783
      31.20000000      90.00000000     360.00000000      34.79337032       1.16313544
      31.30000000      90.00000000     360.00000000      34.79359807       1.16314305
      31.40000000      90.00000000     360.00000000      34.79382580       1.16315067
      31.50000000      90.00000000     360.00000000      34.79405351       1.16315828
      31.60000000      90.00000000     360.00000000      34.79428119       1.16316589
      31.70000000      90.00000000     360.00000000      34.79450886       1.16317350
      31.80000000      90.00000000     360.00000000      34.79473651       1.16318111
      31.90000000      90.00000000     360.00000000      34.79496413       1.16318872
      32.00000000      90.00000000     360.00000000      34.79519173       1.16319633
      32.10000000      90.00000000     360.00000000      34.79541932       1.16320394
      32.20000000      90.00000000     360.00000000      34.79564688       1.16321155
      32.30000000      90.00000000     360.00000000      34.79587442       1.16321915
      32.40000000      90.00000000     360.00000000      34.79610195       1.16322676
      32.50000000      90.00000000     360.00000000      34.79632945       1.16323436
      32.60000000      90.00000000     360.00000000      34.79655693       1.16324197
      32.70000000      90.00000000     360.00000000      34.79678439       1.16324957
      32.80000000      90.00000000     360.00000000      34.79701183       1.16325718
      32.90000000      90.00000000     360.00000000      34.79723924       1.16326478
      33.00000000      90.00000000     360.00000000      34.79746664       1.16327238
      33.10000000      90.00000000     360.00000000      34.79769402       1.16327998
      33.20000000      90.00000000     360.00000000      34.79792138       1.16328758
      33.30000000      90.00000000     360.00000000      34.79814871       1.16329518
      33.40000000      90.00000000     360.00000000      34.79837603       1.16330278
      33.50000000      90.00000000     360.00000000      34.79860332       1.16331038
      33.60000000      90.00000000     360.00000000      34.79883060       1.16331798
      33.70000000      90.00000000     360.00000000      34.79905785       1.16332557
      33.80000000      90.00000000     360.00000000      34.79928508       1.16333317
      33.90000000      90.00000000     360.00000000      34.79951230       1.16334077
      34.00000000      90.00000000     360.00000000      34.79973949       1.16334836
      34.10000000      90.00000000     360.00000000      34.79996666       1.16335596
      34.20000000      90.00000000     360.00000000      34.80019381       1.16336355
      34.30000000      90.00000000     360.00000000      34.80042094       1.16337114
      34.40000000      90.00000000     360.00000000      34.80064805       1.16337873
      34.50000000      90.00000000     360.00000000      34.80087514       1.16338633
      34.60000000      90.00000000     360.00000000      34.80110221       1.16339392
      34.70000000      90.00000000     360.00000000      34.80132926       1.16340151
      34.80000000      90.00000000     360.00000000      34.80155629       1.16340910
      34.90000000      90.00000000     360.00000000      34.80178329       1.16341669
      35.00000000      90.00000000     360.00000000      34.80201028       1.16342427
      35.10000000      90.00000000     360.00000000      34.80223725       1.16343186
      35.20000000      90.00000000     360.00000000      34.80246419       1.16343945
      35.30000000      90.00000000     360.00000000      34.80269112       1.16344703
      35.40000000      90.00000000     360.00000000      34.80291803       1.16345462
      35.50000000      90.00000000     360.00000000      34.80314491       1.16346220
      35.60000000      90.00000000     360.00000000      34.80337178       1.16346979
      35.70000000      90.00000000     360.00000000      34.80359862       1.16347737
      35.80000000      90.00000000     360.00000000      34.80382544       1.16348495
      35.90000000      90.00000000     360.00000000      34.80405225       1.16349254
      36.00000000      90.00000000     360.00000000      34.80427903       1.16350012
      36.10000000      90.00000000     360.00000000      34.80450579       1.16350770
      36.20000000      90.00000000     360.00000000      34.80473254       1.16351528
      36.30000000      90.00000000     360.00000000      34.80495926       1.16352286
      36.40000000      90.00000000     360.00000000      34.80518596       1.16353044
      36.50000000      90.00000000     360.00000000      34.80541264       1.16353801
      36.60000000      90.00000000     360.00000000      34.80563930       1.16354559
      36.70000000      90.00000000     360.00000000      34.80586595       1.16355317
      36.80000000      90.00000000     360.00000000      34.80609257       1.16356074
      36.90000000      90.00000000     360.00000000      34.80631917       1.16356832
      37.00000000      90.00000000     360.00000000      34.80654575       1.16357589
      37.10000000      90.00000000     360.00000000      34.80677231       1.16358347
      37.20000000      90.00000000     360.00000000      34.80699885       1.16359104
      37.30000000      90.00000000     360.00000000      34.80722537       1.16359861
      37.40000000      90.00000000     360.00000000      34.80745186       1.16360618
      37.50000000      90.00000000     360.00000000      34.80767834       1.16361376
      37.60000000      90.00000000     360.00000000      34.80790480       1.16362133
      37.70000000      90.00000000     360.00000000      34.80813124       1.16362890
      37.80000000      90.00000000     360.00000000      34.80835766       1.16363646
      37.90000000      90.00000000     360.00000000      34.80858406       1.16364403
      38.00000000      90.00000000     360.00000000      34.80881044       1.16365160
      38.10000000      90.00000000     360.00000000      34.80903679       1.16365917
      38.20000000      90.00000000     360.00000000      34.80926313       1.16366673
      38.30000000      90.00000000     360.00000000      34.80948945       1.16367430
      38.40000000      90.00000000     360.00000000      34.80971575       1.16368187
      38.50000000      90.00000000     360.00000000      34.80994202       1.16368943
      38.60000000      90.00000000     360.00000000      34.81016828       1.16369699
      38.70000000      90.00000000     360.00000000      34.81039452       1.16370456
      38.80000000      90.00000000     360.00000000      34.81062073       1.16371212
      38.90000000      90.00000000     360.00000000      34.81084693       1.16371968
      39.00000000      90.00000000     360.00000000      34.81107311       1.16372724
      39.10000000      90.00000000     360.00000000      34.81129926       1.16373480
      39.20000000      90.00000000     360.00000000      34.81152540       1.16374236
      39.30000000      90.00000000     360.00000000      34.81175152       1.16374992
      39.40000000      90.00000000     360.00000000      34.81197761       1.16375748
      39.50000000      90.00000000     360.00000000      34.81220369       1.16376504
      39.60000000      90.00000000     360.00000000      34.81242975       1.16377259
      39.70000000      90.00000000     360.00000000      34.81265578       1.16378015
      39.80000000      90.00000000     360.00000000      34.81288180       1.16378771
      39.90000000      90.00000000     360.00000000      34.81310779       1.16379526
      40.00000000      90.00000000     360.00000000      34.81333377       1.16380282
