 # applied field (T), theta (degree), phi (degree), abs for RE 3-4
     0.00000   180.00000   360.00000     4.40280   180.00000   360.00000     4.40280
     0.10000   179.58217   219.64258     4.40279   179.58217   230.35742     4.40279
     0.20000   179.16429   219.64165     4.40276   179.16429   230.35835     4.40276
     0.30000   178.74631   219.64010     4.40272   178.74631   230.35990     4.40272
     0.40000    90.00000   216.40463     4.40076    90.00000   233.59537     4.40076
     0.50000    90.00000   216.40524     4.40072    90.00000   233.59476     4.40072
     0.60000    90.00000   216.40584     4.40068    90.00000   233.59416     4.40068
     0.70000    90.00000   216.40644     4.40064    90.00000   233.59356     4.40064
     0.80000    90.00000   216.40704     4.40060    90.00000   233.59296     4.40060
     0.90000    90.00000   216.40765     4.40056    90.00000   233.59235     4.40056
     1.00000    90.00000   216.40825     4.40052    90.00000   233.59175     4.40052
     1.10000    90.00000   216.40885     4.40048    90.00000   233.59115     4.40048
     1.20000    90.00000   216.40945     4.40044    90.00000   233.59055     4.40044
     1.30000    90.00000   216.41005     4.40040    90.00000   233.58995     4.40040
     1.40000    90.00000   216.41065     4.40036    90.00000   233.58935     4.40036
     1.50000    90.00000   216.41125     4.40032    90.00000   233.58875     4.40032
     1.60000    90.00000   216.41185     4.40028    90.00000   233.58815     4.40028
     1.70000    90.00000   216.41246     4.40024    90.00000   233.58754     4.40024
     1.80000    90.00000   216.41306     4.40021    90.00000   233.58694     4.40021
     1.90000    90.00000   216.41366     4.40017    90.00000   233.58634     4.40017
     2.00000    90.00000   216.41425     4.40013    90.00000   233.58575     4.40013
     2.10000    90.00000   216.41485     4.40009    90.00000   233.58515     4.40009
     2.20000    90.00000   216.41545     4.40005    90.00000   233.58455     4.40005
     2.30000    90.00000   216.41605     4.40001    90.00000   233.58395     4.40001
     2.40000    90.00000   216.41665     4.39997    90.00000   233.58335     4.39997
     2.50000    90.00000   216.41725     4.39993    90.00000   233.58275     4.39993
     2.60000    90.00000   216.41785     4.39989    90.00000   233.58215     4.39989
     2.70000    90.00000   216.41844     4.39985    90.00000   233.58156     4.39985
     2.80000    90.00000   216.41904     4.39981    90.00000   233.58096     4.39981
     2.90000    90.00000   216.41964     4.39977    90.00000   233.58036     4.39977
     3.00000    90.00000   216.42024     4.39973    90.00000   233.57976     4.39973
     3.10000    90.00000   216.42083     4.39969    90.00000   233.57917     4.39969
     3.20000    90.00000   216.42143     4.39965    90.00000   233.57857     4.39965
     3.30000    90.00000   216.42203     4.39961    90.00000   233.57797     4.39961
     3.40000    90.00000   216.42262     4.39957    90.00000   233.57738     4.39957
     3.50000    90.00000   216.42322     4.39953    90.00000   233.57678     4.39953
     3.60000    90.00000   216.42381     4.39949    90.00000   233.57619     4.39949
     3.70000    90.00000   216.42441     4.39945    90.00000   233.57559     4.39945
     3.80000    90.00000   216.42501     4.39941    90.00000   233.57499     4.39941
     3.90000    90.00000   216.42560     4.39937    90.00000   233.57440     4.39937
     4.00000    90.00000   216.42619     4.39933    90.00000   233.57381     4.39933
     4.10000    90.00000   216.42679     4.39929    90.00000   233.57321     4.39929
     4.20000    90.00000   216.42738     4.39925    90.00000   233.57262     4.39925
     4.30000    90.00000   216.42798     4.39921    90.00000   233.57202     4.39921
     4.40000    90.00000   216.42857     4.39917    90.00000   233.57143     4.39917
     4.50000    90.00000   216.42916     4.39913    90.00000   233.57084     4.39913
     4.60000    90.00000   216.42976     4.39909    90.00000   233.57024     4.39909
     4.70000    90.00000   216.43035     4.39905    90.00000   233.56965     4.39905
     4.80000    90.00000   216.43094     4.39901    90.00000   233.56906     4.39901
     4.90000    90.00000   216.43154     4.39897    90.00000   233.56846     4.39897
     5.00000    90.00000   216.43213     4.39893    90.00000   233.56787     4.39893
     5.10000    90.00000   216.43272     4.39889    90.00000   233.56728     4.39889
     5.20000    90.00000   216.43331     4.39885    90.00000   233.56669     4.39885
     5.30000    90.00000   216.43390     4.39881    90.00000   233.56610     4.39881
     5.40000    90.00000   216.43450     4.39877    90.00000   233.56550     4.39877
     5.50000    90.00000   216.43509     4.39873    90.00000   233.56491     4.39873
     5.60000    90.00000   216.43568     4.39869    90.00000   233.56432     4.39869
     5.70000    90.00000   216.43627     4.39865    90.00000   233.56373     4.39865
     5.80000    90.00000   216.43686     4.39861    90.00000   233.56314     4.39861
     5.90000    90.00000   216.43745     4.39857    90.00000   233.56255     4.39857
     6.00000    90.00000   216.43804     4.39853    90.00000   233.56196     4.39853
     6.10000    90.00000   216.43863     4.39849    90.00000   233.56137     4.39849
     6.20000    90.00000   216.43922     4.39845    90.00000   233.56078     4.39845
     6.30000    90.00000   216.43981     4.39841    90.00000   233.56019     4.39841
     6.40000    90.00000   216.44040     4.39837    90.00000   233.55960     4.39837
     6.50000    90.00000   216.44099     4.39832    90.00000   233.55901     4.39832
     6.60000    90.00000   216.44157     4.39828    90.00000   233.55843     4.39828
     6.70000    90.00000   216.44216     4.39824    90.00000   233.55784     4.39824
     6.80000    90.00000   216.44275     4.39820    90.00000   233.55725     4.39820
     6.90000    90.00000   216.44334     4.39816    90.00000   233.55666     4.39816
     7.00000    90.00000   216.44393     4.39812    90.00000   233.55607     4.39812
     7.10000    90.00000   216.44451     4.39808    90.00000   233.55549     4.39808
     7.20000    90.00000   216.44510     4.39804    90.00000   233.55490     4.39804
     7.30000    90.00000   216.44569     4.39800    90.00000   233.55431     4.39800
     7.40000    90.00000   216.44627     4.39796    90.00000   233.55373     4.39796
     7.50000    90.00000   216.44686     4.39792    90.00000   233.55314     4.39792
     7.60000    90.00000   216.44745     4.39788    90.00000   233.55255     4.39788
     7.70000    90.00000   216.44803     4.39784    90.00000   233.55197     4.39784
     7.80000    90.00000   216.44862     4.39780    90.00000   233.55138     4.39780
     7.90000    90.00000   216.44920     4.39776    90.00000   233.55080     4.39776
     8.00000    90.00000   216.44979     4.39772    90.00000   233.55021     4.39772
     8.10000    90.00000   216.45037     4.39768    90.00000   233.54963     4.39768
     8.20000    90.00000   216.45096     4.39764    90.00000   233.54904     4.39764
     8.30000    90.00000   216.45154     4.39760    90.00000   233.54846     4.39760
     8.40000    90.00000   216.45213     4.39756    90.00000   233.54787     4.39756
     8.50000    90.00000   216.45271     4.39752    90.00000   233.54729     4.39752
     8.60000    90.00000   216.45330     4.39748    90.00000   233.54670     4.39748
     8.70000    90.00000   216.45388     4.39744    90.00000   233.54612     4.39744
     8.80000    90.00000   216.45446     4.39740    90.00000   233.54554     4.39740
     8.90000    90.00000   216.45505     4.39736    90.00000   233.54495     4.39736
     9.00000    90.00000   216.45563     4.39732    90.00000   233.54437     4.39732
     9.10000    90.00000   216.45621     4.39728    90.00000   233.54379     4.39728
     9.20000    90.00000   216.45679     4.39724    90.00000   233.54321     4.39724
     9.30000    90.00000   216.45738     4.39720    90.00000   233.54262     4.39720
     9.40000    90.00000   216.45796     4.39716    90.00000   233.54204     4.39716
     9.50000    90.00000   216.45854     4.39712    90.00000   233.54146     4.39712
     9.60000    90.00000   216.45912     4.39708    90.00000   233.54088     4.39708
     9.70000    90.00000   216.45970     4.39704    90.00000   233.54030     4.39704
     9.80000    90.00000   216.46028     4.39700    90.00000   233.53972     4.39700
     9.90000    90.00000   216.46086     4.39696    90.00000   233.53914     4.39696
    10.00000    90.00000   216.46144     4.39692    90.00000   233.53856     4.39692
    10.10000    90.00000   216.46202     4.39688    90.00000   233.53798     4.39688
    10.20000    90.00000   216.46260     4.39684    90.00000   233.53740     4.39684
    10.30000    90.00000   216.46318     4.39680    90.00000   233.53682     4.39680
    10.40000    90.00000   216.46376     4.39676    90.00000   233.53624     4.39676
    10.50000    90.00000   216.46434     4.39672    90.00000   233.53566     4.39672
    10.60000    90.00000   216.46492     4.39668    90.00000   233.53508     4.39668
    10.70000    90.00000   216.46550     4.39664    90.00000   233.53450     4.39664
    10.80000    90.00000   216.46608     4.39660    90.00000   233.53392     4.39660
    10.90000    90.00000   216.46666     4.39656    90.00000   233.53334     4.39656
    11.00000    90.00000   216.46724     4.39652    90.00000   233.53276     4.39652
    11.10000    90.00000   216.46781     4.39647    90.00000   233.53219     4.39647
    11.20000    90.00000   216.46839     4.39643    90.00000   233.53161     4.39643
    11.30000    90.00000   216.46897     4.39639    90.00000   233.53103     4.39639
    11.40000    90.00000   216.46955     4.39635    90.00000   233.53045     4.39635
    11.50000    90.00000   216.47012     4.39631    90.00000   233.52988     4.39631
    11.60000    90.00000   216.47070     4.39627    90.00000   233.52930     4.39627
    11.70000    90.00000   216.47128     4.39623    90.00000   233.52872     4.39623
    11.80000    90.00000   216.47185     4.39619    90.00000   233.52815     4.39619
    11.90000    90.00000   216.47243     4.39615    90.00000   233.52757     4.39615
    12.00000    90.00000   216.47301     4.39611    90.00000   233.52699     4.39611
    12.10000    90.00000   216.47358     4.39607    90.00000   233.52642     4.39607
    12.20000    90.00000   216.47416     4.39603    90.00000   233.52584     4.39603
    12.30000    90.00000   216.47473     4.39599    90.00000   233.52527     4.39599
    12.40000    90.00000   216.47531     4.39595    90.00000   233.52469     4.39595
    12.50000    90.00000   216.47588     4.39591    90.00000   233.52412     4.39591
    12.60000    90.00000   216.47646     4.39587    90.00000   233.52354     4.39587
    12.70000    90.00000   216.47703     4.39583    90.00000   233.52297     4.39583
    12.80000    90.00000   216.47760     4.39579    90.00000   233.52240     4.39579
    12.90000    90.00000   216.47818     4.39575    90.00000   233.52182     4.39575
    13.00000    90.00000   216.47875     4.39571    90.00000   233.52125     4.39571
    13.10000    90.00000   216.47932     4.39567    90.00000   233.52068     4.39567
    13.20000    90.00000   216.47990     4.39563    90.00000   233.52010     4.39563
    13.30000    90.00000   216.48047     4.39559    90.00000   233.51953     4.39559
    13.40000    90.00000   216.48104     4.39555    90.00000   233.51896     4.39555
    13.50000    90.00000   216.48161     4.39551    90.00000   233.51839     4.39551
    13.60000    90.00000   216.48219     4.39547    90.00000   233.51781     4.39547
    13.70000    90.00000   216.48276     4.39542    90.00000   233.51724     4.39542
    13.80000    90.00000   216.48333     4.39538    90.00000   233.51667     4.39538
    13.90000    90.00000   216.48390     4.39534    90.00000   233.51610     4.39534
    14.00000    90.00000   216.48447     4.39530    90.00000   233.51553     4.39530
    14.10000    90.00000   216.48504     4.39526    90.00000   233.51496     4.39526
    14.20000    90.00000   216.48561     4.39522    90.00000   233.51439     4.39522
    14.30000    90.00000   216.48619     4.39518    90.00000   233.51381     4.39518
    14.40000    90.00000   216.48676     4.39514    90.00000   233.51324     4.39514
    14.50000    90.00000   216.48733     4.39510    90.00000   233.51267     4.39510
    14.60000    90.00000   216.48790     4.39506    90.00000   233.51210     4.39506
    14.70000    90.00000   216.48846     4.39502    90.00000   233.51154     4.39502
    14.80000    90.00000   216.48903     4.39498    90.00000   233.51097     4.39498
    14.90000    90.00000   216.48960     4.39494    90.00000   233.51040     4.39494
    15.00000    90.00000   216.49017     4.39490    90.00000   233.50983     4.39490
    15.10000    90.00000   216.49074     4.39486    90.00000   233.50926     4.39486
    15.20000    90.00000   216.49131     4.39482    90.00000   233.50869     4.39482
    15.30000    90.00000   216.49188     4.39478    90.00000   233.50812     4.39478
    15.40000    90.00000   216.49245     4.39474    90.00000   233.50755     4.39474
    15.50000    90.00000   216.49301     4.39470    90.00000   233.50699     4.39470
    15.60000    90.00000   216.49358     4.39466    90.00000   233.50642     4.39466
    15.70000    90.00000   216.49415     4.39461    90.00000   233.50585     4.39461
    15.80000    90.00000   216.49471     4.39457    90.00000   233.50529     4.39457
    15.90000    90.00000   216.49528     4.39453    90.00000   233.50472     4.39453
    16.00000    90.00000   216.49585     4.39449    90.00000   233.50415     4.39449
    16.10000    90.00000   216.49641     4.39445    90.00000   233.50359     4.39445
    16.20000    90.00000   216.49698     4.39441    90.00000   233.50302     4.39441
    16.30000    90.00000   216.49755     4.39437    90.00000   233.50245     4.39437
    16.40000    90.00000   216.49811     4.39433    90.00000   233.50189     4.39433
    16.50000    90.00000   216.49868     4.39429    90.00000   233.50132     4.39429
    16.60000    90.00000   216.49924     4.39425    90.00000   233.50076     4.39425
    16.70000    90.00000   216.49981     4.39421    90.00000   233.50019     4.39421
    16.80000    90.00000   216.50037     4.39417    90.00000   233.49963     4.39417
    16.90000    90.00000   216.50094     4.39413    90.00000   233.49906     4.39413
    17.00000    90.00000   216.50150     4.39409    90.00000   233.49850     4.39409
    17.10000    90.00000   216.50206     4.39405    90.00000   233.49794     4.39405
    17.20000    90.00000   216.50263     4.39401    90.00000   233.49737     4.39401
    17.30000    90.00000   216.50319     4.39397    90.00000   233.49681     4.39397
    17.40000    90.00000   216.50376     4.39392    90.00000   233.49624     4.39392
    17.50000    90.00000   216.50432     4.39388    90.00000   233.49568     4.39388
    17.60000    90.00000   216.50488     4.39384    90.00000   233.49512     4.39384
    17.70000    90.00000   216.50544     4.39380    90.00000   233.49456     4.39380
    17.80000    90.00000   216.50601     4.39376    90.00000   233.49399     4.39376
    17.90000    90.00000   216.50657     4.39372    90.00000   233.49343     4.39372
    18.00000    90.00000   216.50713     4.39368    90.00000   233.49287     4.39368
    18.10000    90.00000   216.50769     4.39364    90.00000   233.49231     4.39364
    18.20000    90.00000   216.50825     4.39360    90.00000   233.49175     4.39360
    18.30000    90.00000   216.50882     4.39356    90.00000   233.49118     4.39356
    18.40000    90.00000   216.50938     4.39352    90.00000   233.49062     4.39352
    18.50000    90.00000   216.50994     4.39348    90.00000   233.49006     4.39348
    18.60000    90.00000   216.51050     4.39344    90.00000   233.48950     4.39344
    18.70000    90.00000   216.51106     4.39340    90.00000   233.48894     4.39340
    18.80000    90.00000   216.51162     4.39336    90.00000   233.48838     4.39336
    18.90000    90.00000   216.51218     4.39331    90.00000   233.48782     4.39331
    19.00000    90.00000   216.51274     4.39327    90.00000   233.48726     4.39327
    19.10000    90.00000   216.51330     4.39323    90.00000   233.48670     4.39323
    19.20000    90.00000   216.51386     4.39319    90.00000   233.48614     4.39319
    19.30000    90.00000   216.51441     4.39315    90.00000   233.48559     4.39315
    19.40000    90.00000   216.51497     4.39311    90.00000   233.48503     4.39311
    19.50000    90.00000   216.51553     4.39307    90.00000   233.48447     4.39307
    19.60000    90.00000   216.51609     4.39303    90.00000   233.48391     4.39303
    19.70000    90.00000   216.51665     4.39299    90.00000   233.48335     4.39299
    19.80000    90.00000   216.51721     4.39295    90.00000   233.48279     4.39295
    19.90000    90.00000   216.51776     4.39291    90.00000   233.48224     4.39291
    20.00000    90.00000   216.51832     4.39287    90.00000   233.48168     4.39287
    20.10000    90.00000   216.51888     4.39283    90.00000   233.48112     4.39283
    20.20000    90.00000   216.51944     4.39278    90.00000   233.48056     4.39278
    20.30000    90.00000   216.51999     4.39274    90.00000   233.48001     4.39274
    20.40000    90.00000   216.52055     4.39270    90.00000   233.47945     4.39270
    20.50000    90.00000   216.52110     4.39266    90.00000   233.47890     4.39266
    20.60000    90.00000   216.52166     4.39262    90.00000   233.47834     4.39262
    20.70000    90.00000   216.52222     4.39258    90.00000   233.47778     4.39258
    20.80000    90.00000   216.52277     4.39254    90.00000   233.47723     4.39254
    20.90000    90.00000   216.52333     4.39250    90.00000   233.47667     4.39250
    21.00000    90.00000   216.52388     4.39246    90.00000   233.47612     4.39246
    21.10000    90.00000   216.52444     4.39242    90.00000   233.47556     4.39242
    21.20000    90.00000   216.52499     4.39238    90.00000   233.47501     4.39238
    21.30000    90.00000   216.52555     4.39234    90.00000   233.47445     4.39234
    21.40000    90.00000   216.52610     4.39230    90.00000   233.47390     4.39230
    21.50000    90.00000   216.52665     4.39225    90.00000   233.47335     4.39225
    21.60000    90.00000   216.52721     4.39221    90.00000   233.47279     4.39221
    21.70000    90.00000   216.52776     4.39217    90.00000   233.47224     4.39217
    21.80000    90.00000   216.52831     4.39213    90.00000   233.47169     4.39213
    21.90000    90.00000   216.52887     4.39209    90.00000   233.47113     4.39209
    22.00000    90.00000   216.52942     4.39205    90.00000   233.47058     4.39205
    22.10000    90.00000   216.52997     4.39201    90.00000   233.47003     4.39201
    22.20000    90.00000   216.53053     4.39197    90.00000   233.46947     4.39197
    22.30000    90.00000   216.53108     4.39193    90.00000   233.46892     4.39193
    22.40000    90.00000   216.53163     4.39189    90.00000   233.46837     4.39189
    22.50000    90.00000   216.53218     4.39185    90.00000   233.46782     4.39185
    22.60000    90.00000   216.53273     4.39181    90.00000   233.46727     4.39181
    22.70000    90.00000   216.53328     4.39176    90.00000   233.46672     4.39176
    22.80000    90.00000   216.53383     4.39172    90.00000   233.46617     4.39172
    22.90000    90.00000   216.53439     4.39168    90.00000   233.46561     4.39168
    23.00000    90.00000   216.53494     4.39164    90.00000   233.46506     4.39164
    23.10000    90.00000   216.53549     4.39160    90.00000   233.46451     4.39160
    23.20000    90.00000   216.53604     4.39156    90.00000   233.46396     4.39156
    23.30000    90.00000   216.53659     4.39152    90.00000   233.46341     4.39152
    23.40000    90.00000   216.53714     4.39148    90.00000   233.46286     4.39148
    23.50000    90.00000   216.53769     4.39144    90.00000   233.46231     4.39144
    23.60000    90.00000   216.53823     4.39140    90.00000   233.46177     4.39140
    23.70000    90.00000   216.53878     4.39136    90.00000   233.46122     4.39136
    23.80000    90.00000   216.53933     4.39131    90.00000   233.46067     4.39131
    23.90000    90.00000   216.53988     4.39127    90.00000   233.46012     4.39127
    24.00000    90.00000   216.54043     4.39123    90.00000   233.45957     4.39123
    24.10000    90.00000   216.54098     4.39119    90.00000   233.45902     4.39119
    24.20000    90.00000   216.54152     4.39115    90.00000   233.45848     4.39115
    24.30000    90.00000   216.54207     4.39111    90.00000   233.45793     4.39111
    24.40000    90.00000   216.54262     4.39107    90.00000   233.45738     4.39107
    24.50000    90.00000   216.54317     4.39103    90.00000   233.45683     4.39103
    24.60000    90.00000   216.54371     4.39099    90.00000   233.45629     4.39099
    24.70000    90.00000   216.54426     4.39095    90.00000   233.45574     4.39095
    24.80000    90.00000   216.54481     4.39090    90.00000   233.45519     4.39090
    24.90000    90.00000   216.54535     4.39086    90.00000   233.45465     4.39086
    25.00000    90.00000   216.54590     4.39082    90.00000   233.45410     4.39082
    25.10000    90.00000   216.54645     4.39078    90.00000   233.45355     4.39078
    25.20000    90.00000   216.54699     4.39074    90.00000   233.45301     4.39074
    25.30000    90.00000   216.54754     4.39070    90.00000   233.45246     4.39070
    25.40000    90.00000   216.54808     4.39066    90.00000   233.45192     4.39066
    25.50000    90.00000   216.54863     4.39062    90.00000   233.45137     4.39062
    25.60000    90.00000   216.54917     4.39058    90.00000   233.45083     4.39058
    25.70000    90.00000   216.54972     4.39054    90.00000   233.45028     4.39054
    25.80000    90.00000   216.55026     4.39049    90.00000   233.44974     4.39049
    25.90000    90.00000   216.55080     4.39045    90.00000   233.44920     4.39045
    26.00000    90.00000   216.55135     4.39041    90.00000   233.44865     4.39041
    26.10000    90.00000   216.55189     4.39037    90.00000   233.44811     4.39037
    26.20000    90.00000   216.55243     4.39033    90.00000   233.44757     4.39033
    26.30000    90.00000   216.55298     4.39029    90.00000   233.44702     4.39029
    26.40000    90.00000   216.55352     4.39025    90.00000   233.44648     4.39025
    26.50000    90.00000   216.55406     4.39021    90.00000   233.44594     4.39021
    26.60000    90.00000   216.55460     4.39017    90.00000   233.44540     4.39017
    26.70000    90.00000   216.55515     4.39012    90.00000   233.44485     4.39012
    26.80000    90.00000   216.55569     4.39008    90.00000   233.44431     4.39008
    26.90000    90.00000   216.55623     4.39004    90.00000   233.44377     4.39004
    27.00000    90.00000   216.55677     4.39000    90.00000   233.44323     4.39000
    27.10000    90.00000   216.55731     4.38996    90.00000   233.44269     4.38996
    27.20000    90.00000   216.55785     4.38992    90.00000   233.44215     4.38992
    27.30000    90.00000   216.55840     4.38988    90.00000   233.44160     4.38988
    27.40000    90.00000   216.55894     4.38984    90.00000   233.44106     4.38984
    27.50000    90.00000   216.55948     4.38980    90.00000   233.44052     4.38980
    27.60000    90.00000   216.56002     4.38975    90.00000   233.43998     4.38975
    27.70000    90.00000   216.56056     4.38971    90.00000   233.43944     4.38971
    27.80000    90.00000   216.56110     4.38967    90.00000   233.43890     4.38967
    27.90000    90.00000   216.56164     4.38963    90.00000   233.43836     4.38963
    28.00000    90.00000   216.56218     4.38959    90.00000   233.43782     4.38959
    28.10000    90.00000   216.56271     4.38955    90.00000   233.43729     4.38955
    28.20000    90.00000   216.56325     4.38951    90.00000   233.43675     4.38951
    28.30000    90.00000   216.56379     4.38947    90.00000   233.43621     4.38947
    28.40000    90.00000   216.56433     4.38943    90.00000   233.43567     4.38943
    28.50000    90.00000   216.56487     4.38938    90.00000   233.43513     4.38938
    28.60000    90.00000   216.56541     4.38934    90.00000   233.43459     4.38934
    28.70000    90.00000   216.56594     4.38930    90.00000   233.43406     4.38930
    28.80000    90.00000   216.56648     4.38926    90.00000   233.43352     4.38926
    28.90000    90.00000   216.56702     4.38922    90.00000   233.43298     4.38922
    29.00000    90.00000   216.56756     4.38918    90.00000   233.43244     4.38918
    29.10000    90.00000   216.56809     4.38914    90.00000   233.43191     4.38914
    29.20000    90.00000   216.56863     4.38910    90.00000   233.43137     4.38910
    29.30000    90.00000   216.56917     4.38905    90.00000   233.43083     4.38905
    29.40000    90.00000   216.56970     4.38901    90.00000   233.43030     4.38901
    29.50000    90.00000   216.57024     4.38897    90.00000   233.42976     4.38897
    29.60000    90.00000   216.57077     4.38893    90.00000   233.42923     4.38893
    29.70000    90.00000   216.57131     4.38889    90.00000   233.42869     4.38889
    29.80000    90.00000   216.57184     4.38885    90.00000   233.42816     4.38885
    29.90000    90.00000   216.57238     4.38881    90.00000   233.42762     4.38881
    30.00000    90.00000   216.57291     4.38877    90.00000   233.42709     4.38877
    30.10000    90.00000   216.57345     4.38873    90.00000   233.42655     4.38873
    30.20000    90.00000   216.57398     4.38868    90.00000   233.42602     4.38868
    30.30000    90.00000   216.57452     4.38864    90.00000   233.42548     4.38864
    30.40000    90.00000   216.57505     4.38860    90.00000   233.42495     4.38860
    30.50000    90.00000   216.57558     4.38856    90.00000   233.42442     4.38856
    30.60000    90.00000   216.57612     4.38852    90.00000   233.42388     4.38852
    30.70000    90.00000   216.57665     4.38848    90.00000   233.42335     4.38848
    30.80000    90.00000   216.57718     4.38844    90.00000   233.42282     4.38844
    30.90000    90.00000   216.57772     4.38840    90.00000   233.42228     4.38840
    31.00000    90.00000   216.57825     4.38835    90.00000   233.42175     4.38835
    31.10000    90.00000   216.57878     4.38831    90.00000   233.42122     4.38831
    31.20000    90.00000   216.57931     4.38827    90.00000   233.42069     4.38827
    31.30000    90.00000   216.57985     4.38823    90.00000   233.42015     4.38823
    31.40000    90.00000   216.58038     4.38819    90.00000   233.41962     4.38819
    31.50000    90.00000   216.58091     4.38815    90.00000   233.41909     4.38815
    31.60000    90.00000   216.58144     4.38811    90.00000   233.41856     4.38811
    31.70000    90.00000   216.58197     4.38806    90.00000   233.41803     4.38806
    31.80000    90.00000   216.58250     4.38802    90.00000   233.41750     4.38802
    31.90000    90.00000   216.58303     4.38798    90.00000   233.41697     4.38798
    32.00000    90.00000   216.58356     4.38794    90.00000   233.41644     4.38794
    32.10000    90.00000   216.58409     4.38790    90.00000   233.41591     4.38790
    32.20000    90.00000   216.58462     4.38786    90.00000   233.41538     4.38786
    32.30000    90.00000   216.58515     4.38782    90.00000   233.41485     4.38782
    32.40000    90.00000   216.58568     4.38778    90.00000   233.41432     4.38778
    32.50000    90.00000   216.58621     4.38773    90.00000   233.41379     4.38773
    32.60000    90.00000   216.58674     4.38769    90.00000   233.41326     4.38769
    32.70000    90.00000   216.58727     4.38765    90.00000   233.41273     4.38765
    32.80000    90.00000   216.58780     4.38761    90.00000   233.41220     4.38761
    32.90000    90.00000   216.58833     4.38757    90.00000   233.41167     4.38757
    33.00000    90.00000   216.58886     4.38753    90.00000   233.41114     4.38753
    33.10000    90.00000   216.58938     4.38749    90.00000   233.41062     4.38749
    33.20000    90.00000   216.58991     4.38744    90.00000   233.41009     4.38744
    33.30000    90.00000   216.59044     4.38740    90.00000   233.40956     4.38740
    33.40000    90.00000   216.59097     4.38736    90.00000   233.40903     4.38736
    33.50000    90.00000   216.59149     4.38732    90.00000   233.40851     4.38732
    33.60000    90.00000   216.59202     4.38728    90.00000   233.40798     4.38728
    33.70000    90.00000   216.59255     4.38724    90.00000   233.40745     4.38724
    33.80000    90.00000   216.59307     4.38720    90.00000   233.40693     4.38720
    33.90000    90.00000   216.59360     4.38715    90.00000   233.40640     4.38715
    34.00000    90.00000   216.59413     4.38711    90.00000   233.40587     4.38711
    34.10000    90.00000   216.59465     4.38707    90.00000   233.40535     4.38707
    34.20000    90.00000   216.59518     4.38703    90.00000   233.40482     4.38703
    34.30000    90.00000   216.59570     4.38699    90.00000   233.40430     4.38699
    34.40000    90.00000   216.59623     4.38695    90.00000   233.40377     4.38695
    34.50000    90.00000   216.59675     4.38691    90.00000   233.40325     4.38691
    34.60000    90.00000   216.59728     4.38686    90.00000   233.40272     4.38686
    34.70000    90.00000   216.59780     4.38682    90.00000   233.40220     4.38682
    34.80000    90.00000   216.59833     4.38678    90.00000   233.40167     4.38678
    34.90000    90.00000   216.59885     4.38674    90.00000   233.40115     4.38674
    35.00000    90.00000   216.59937     4.38670    90.00000   233.40063     4.38670
    35.10000    90.00000   216.59990     4.38666    90.00000   233.40010     4.38666
    35.20000    90.00000   216.60042     4.38662    90.00000   233.39958     4.38662
    35.30000    90.00000   216.60094     4.38657    90.00000   233.39906     4.38657
    35.40000    90.00000   216.60147     4.38653    90.00000   233.39853     4.38653
    35.50000    90.00000   216.60199     4.38649    90.00000   233.39801     4.38649
    35.60000    90.00000   216.60251     4.38645    90.00000   233.39749     4.38645
    35.70000    90.00000   216.60303     4.38641    90.00000   233.39697     4.38641
    35.80000    90.00000   216.60356     4.38637    90.00000   233.39644     4.38637
    35.90000    90.00000   216.60408     4.38632    90.00000   233.39592     4.38632
    36.00000    90.00000   216.60460     4.38628    90.00000   233.39540     4.38628
    36.10000    90.00000   216.60512     4.38624    90.00000   233.39488     4.38624
    36.20000    90.00000   216.60564     4.38620    90.00000   233.39436     4.38620
    36.30000    90.00000   216.60616     4.38616    90.00000   233.39384     4.38616
    36.40000    90.00000   216.60668     4.38612    90.00000   233.39332     4.38612
    36.50000    90.00000   216.60720     4.38608    90.00000   233.39280     4.38608
    36.60000    90.00000   216.60772     4.38603    90.00000   233.39228     4.38603
    36.70000    90.00000   216.60824     4.38599    90.00000   233.39176     4.38599
    36.80000    90.00000   216.60876     4.38595    90.00000   233.39124     4.38595
    36.90000    90.00000   216.60928     4.38591    90.00000   233.39072     4.38591
    37.00000    90.00000   216.60980     4.38587    90.00000   233.39020     4.38587
    37.10000    90.00000   216.61032     4.38583    90.00000   233.38968     4.38583
    37.20000    90.00000   216.61084     4.38578    90.00000   233.38916     4.38578
    37.30000    90.00000   216.61136     4.38574    90.00000   233.38864     4.38574
    37.40000    90.00000   216.61188     4.38570    90.00000   233.38812     4.38570
    37.50000    90.00000   216.61240     4.38566    90.00000   233.38760     4.38566
    37.60000    90.00000   216.61291     4.38562    90.00000   233.38709     4.38562
    37.70000    90.00000   216.61343     4.38558    90.00000   233.38657     4.38558
    37.80000    90.00000   216.61395     4.38553    90.00000   233.38605     4.38553
    37.90000    90.00000   216.61447     4.38549    90.00000   233.38553     4.38549
    38.00000    90.00000   216.61498     4.38545    90.00000   233.38502     4.38545
    38.10000    90.00000   216.61550     4.38541    90.00000   233.38450     4.38541
    38.20000    90.00000   216.61602     4.38537    90.00000   233.38398     4.38537
    38.30000    90.00000   216.61654     4.38533    90.00000   233.38346     4.38533
    38.40000    90.00000   216.61705     4.38528    90.00000   233.38295     4.38528
    38.50000    90.00000   216.61757     4.38524    90.00000   233.38243     4.38524
    38.60000    90.00000   216.61808     4.38520    90.00000   233.38192     4.38520
    38.70000    90.00000   216.61860     4.38516    90.00000   233.38140     4.38516
    38.80000    90.00000   216.61911     4.38512    90.00000   233.38089     4.38512
    38.90000    90.00000   216.61963     4.38508    90.00000   233.38037     4.38508
    39.00000    90.00000   216.62015     4.38503    90.00000   233.37985     4.38503
    39.10000    90.00000   216.62066     4.38499    90.00000   233.37934     4.38499
    39.20000    90.00000   216.62117     4.38495    90.00000   233.37883     4.38495
    39.30000    90.00000   216.62169     4.38491    90.00000   233.37831     4.38491
    39.40000    90.00000   216.62220     4.38487    90.00000   233.37780     4.38487
    39.50000    90.00000   216.62272     4.38483    90.00000   233.37728     4.38483
    39.60000    90.00000   216.62323     4.38478    90.00000   233.37677     4.38478
    39.70000    90.00000   216.62374     4.38474    90.00000   233.37626     4.38474
    39.80000    90.00000   216.62426     4.38470    90.00000   233.37574     4.38470
    39.90000    90.00000   216.62477     4.38466    90.00000   233.37523     4.38466
    40.00000    90.00000   216.62528     4.38462    90.00000   233.37472     4.38462
