 # applied field (T), theta (degree), phi (degree), abs [muB/unitcell], abs [T]
       0.00000000       0.00000000       0.00000000      46.45198008       1.55288044
       0.10000000       0.39871121     360.00000000      46.45198307       1.55288054
       0.20000000       0.79742361     360.00000000      46.45199205       1.55288084
       0.30000000       1.19613838     360.00000000      46.45200700       1.55288134
       0.40000000       1.59485672     360.00000000      46.45202795       1.55288204
       0.50000000       1.99357980     360.00000000      46.45205489       1.55288294
       0.60000000       2.33544658     360.00000000      46.45208354       1.55288390
       0.70000000       2.73418161     360.00000000      46.45212177       1.55288518
       0.80000000       3.13292476     360.00000000      46.45216602       1.55288666
       0.90000000       3.53167721     360.00000000      46.45221630       1.55288834
       1.00000000       3.93044014     360.00000000      46.45227263       1.55289022
       1.10000000       4.32921473     360.00000000      46.45233501       1.55289231
       1.20000000       4.72800215     360.00000000      46.45240347       1.55289460
       1.30000000       5.12680356     360.00000000      46.45247803       1.55289709
       1.40000000       5.52562012     360.00000000      46.45255869       1.55289979
       1.50000000       5.92445301     360.00000000      46.45264549       1.55290269
       1.60000000       6.32330337     360.00000000      46.45273843       1.55290580
       1.70000000       6.77905601     360.00000000      46.45284997       1.55290952
       1.80000000       7.17794771     360.00000000      46.45295603       1.55291307
       1.90000000       7.57686049     360.00000000      46.45306832       1.55291682
       2.00000000       7.97579548     360.00000000      46.45318684       1.55292079
       2.10000000       8.37475380     360.00000000      46.45331162       1.55292496
       2.20000000       8.83063717     360.00000000      46.45345904       1.55292988
       2.30000000       9.22964930     360.00000000      46.45359719       1.55293450
       2.40000000       9.62868826     360.00000000      46.45374167       1.55293933
       2.50000000      10.08466820     360.00000000      46.45391130       1.55294500
       2.60000000      10.48376838     360.00000000      46.45406930       1.55295029
       2.70000000      10.93982125     360.00000000      46.45425417       1.55295647
       2.80000000      11.33898760     360.00000000      46.45442578       1.55296220
       2.90000000      11.79511901     360.00000000      46.45462600       1.55296890
       3.00000000      12.19435639     360.00000000      46.45481130       1.55297509
       3.10000000      12.65057183     360.00000000      46.45502695       1.55298230
       3.20000000      13.10683433     360.00000000      46.45525081       1.55298978
       3.30000000      13.56314539     360.00000000      46.45548288       1.55299754
       3.40000000      14.01950650     360.00000000      46.45572317       1.55300557
       3.50000000      14.47591910     360.00000000      46.45597171       1.55301388
       3.60000000      14.93238464     360.00000000      46.45622848       1.55302247
       3.70000000      15.38890452     360.00000000      46.45649348       1.55303133
       3.80000000      15.84548012     360.00000000      46.45676671       1.55304046
       3.90000000      16.35911048     360.00000000      46.45707952       1.55305092
       4.00000000      16.81580900     360.00000000      46.45737007       1.55306063
       4.10000000      17.32958118     360.00000000      46.45770207       1.55307173
       4.20000000      17.78640841     360.00000000      46.45800980       1.55308202
       4.30000000      18.30032873     360.00000000      46.45836083       1.55309375
       4.40000000      18.81432997     360.00000000      46.45872177       1.55310582
       4.50000000      19.32841374     360.00000000      46.45909254       1.55311821
       4.60000000      19.89964144     360.00000000      46.45951136       1.55313221
       4.70000000      20.41390456     360.00000000      46.45990242       1.55314529
       4.80000000      20.98533535     360.00000000      46.46034329       1.55316002
       4.90000000      21.55687579     360.00000000      46.46079542       1.55317514
       5.00000000      22.12852758     360.00000000      46.46125859       1.55319062
       5.10000000      22.75740809     360.00000000      46.46177604       1.55320792
       5.20000000      23.38642750     360.00000000      46.46230596       1.55322564
       5.30000000      24.01558752     360.00000000      46.46284795       1.55324375
       5.40000000      24.64488968     360.00000000      46.46340151       1.55326226
       5.50000000      25.33150464     360.00000000      46.46401370       1.55328273
       5.60000000      26.07547733     360.00000000      46.46468678       1.55330523
       5.70000000      26.81965428     360.00000000      46.46537322       1.55332817
       5.80000000      27.62125484     360.00000000      46.46612237       1.55335322
       5.90000000      28.42309434     360.00000000      46.46688423       1.55337869
       6.00000000      90.00000000     360.00000000      46.48459667       1.55397081
       6.10000000      90.00000000     360.00000000      46.48464015       1.55397226
       6.20000000      90.00000000     360.00000000      46.48468363       1.55397372
       6.30000000      90.00000000     360.00000000      46.48472711       1.55397517
       6.40000000      90.00000000     360.00000000      46.48477060       1.55397662
       6.50000000      90.00000000     360.00000000      46.48481410       1.55397808
       6.60000000      90.00000000     360.00000000      46.48485760       1.55397953
       6.70000000      90.00000000     360.00000000      46.48490111       1.55398099
       6.80000000      90.00000000     360.00000000      46.48494463       1.55398244
       6.90000000      90.00000000     360.00000000      46.48498814       1.55398390
       7.00000000      90.00000000     360.00000000      46.48503167       1.55398535
       7.10000000      90.00000000     360.00000000      46.48507520       1.55398681
       7.20000000      90.00000000     360.00000000      46.48511873       1.55398826
       7.30000000      90.00000000     360.00000000      46.48516227       1.55398972
       7.40000000      90.00000000     360.00000000      46.48520582       1.55399117
       7.50000000      90.00000000     360.00000000      46.48524937       1.55399263
       7.60000000      90.00000000     360.00000000      46.48529293       1.55399409
       7.70000000      90.00000000     360.00000000      46.48533649       1.55399554
       7.80000000      90.00000000     360.00000000      46.48538006       1.55399700
       7.90000000      90.00000000     360.00000000      46.48542363       1.55399845
       8.00000000      90.00000000     360.00000000      46.48546721       1.55399991
       8.10000000      90.00000000     360.00000000      46.48551079       1.55400137
       8.20000000      90.00000000     360.00000000      46.48555438       1.55400283
       8.30000000      90.00000000     360.00000000      46.48559798       1.55400428
       8.40000000      90.00000000     360.00000000      46.48564158       1.55400574
       8.50000000      90.00000000     360.00000000      46.48568518       1.55400720
       8.60000000      90.00000000     360.00000000      46.48572879       1.55400866
       8.70000000      90.00000000     360.00000000      46.48577241       1.55401011
       8.80000000      90.00000000     360.00000000      46.48581603       1.55401157
       8.90000000      90.00000000     360.00000000      46.48585966       1.55401303
       9.00000000      90.00000000     360.00000000      46.48590329       1.55401449
       9.10000000      90.00000000     360.00000000      46.48594693       1.55401595
       9.20000000      90.00000000     360.00000000      46.48599057       1.55401741
       9.30000000      90.00000000     360.00000000      46.48603422       1.55401887
       9.40000000      90.00000000     360.00000000      46.48607787       1.55402033
       9.50000000      90.00000000     360.00000000      46.48612153       1.55402179
       9.60000000      90.00000000     360.00000000      46.48616520       1.55402325
       9.70000000      90.00000000     360.00000000      46.48620887       1.55402471
       9.80000000      90.00000000     360.00000000      46.48625254       1.55402617
       9.90000000      90.00000000     360.00000000      46.48629623       1.55402763
      10.00000000      90.00000000     360.00000000      46.48633991       1.55402909
      10.10000000      90.00000000     360.00000000      46.48638361       1.55403055
      10.20000000      90.00000000     360.00000000      46.48642730       1.55403201
      10.30000000      90.00000000     360.00000000      46.48647101       1.55403347
      10.40000000      90.00000000     360.00000000      46.48651471       1.55403493
      10.50000000      90.00000000     360.00000000      46.48655843       1.55403639
      10.60000000      90.00000000     360.00000000      46.48660215       1.55403785
      10.70000000      90.00000000     360.00000000      46.48664587       1.55403931
      10.80000000      90.00000000     360.00000000      46.48668960       1.55404078
      10.90000000      90.00000000     360.00000000      46.48673334       1.55404224
      11.00000000      90.00000000     360.00000000      46.48677708       1.55404370
      11.10000000      90.00000000     360.00000000      46.48682083       1.55404516
      11.20000000      90.00000000     360.00000000      46.48686458       1.55404663
      11.30000000      90.00000000     360.00000000      46.48690834       1.55404809
      11.40000000      90.00000000     360.00000000      46.48695210       1.55404955
      11.50000000      90.00000000     360.00000000      46.48699587       1.55405101
      11.60000000      90.00000000     360.00000000      46.48703964       1.55405248
      11.70000000      90.00000000     360.00000000      46.48708342       1.55405394
      11.80000000      90.00000000     360.00000000      46.48712720       1.55405541
      11.90000000      90.00000000     360.00000000      46.48717099       1.55405687
      12.00000000      90.00000000     360.00000000      46.48721479       1.55405833
      12.10000000      90.00000000     360.00000000      46.48725859       1.55405980
      12.20000000      90.00000000     360.00000000      46.48730240       1.55406126
      12.30000000      90.00000000     360.00000000      46.48734621       1.55406273
      12.40000000      90.00000000     360.00000000      46.48739003       1.55406419
      12.50000000      90.00000000     360.00000000      46.48743385       1.55406566
      12.60000000      90.00000000     360.00000000      46.48747768       1.55406712
      12.70000000      90.00000000     360.00000000      46.48752151       1.55406859
      12.80000000      90.00000000     360.00000000      46.48756535       1.55407005
      12.90000000      90.00000000     360.00000000      46.48760920       1.55407152
      13.00000000      90.00000000     360.00000000      46.48765305       1.55407298
      13.10000000      90.00000000     360.00000000      46.48769690       1.55407445
      13.20000000      90.00000000     360.00000000      46.48774076       1.55407592
      13.30000000      90.00000000     360.00000000      46.48778463       1.55407738
      13.40000000      90.00000000     360.00000000      46.48782850       1.55407885
      13.50000000      90.00000000     360.00000000      46.48787238       1.55408032
      13.60000000      90.00000000     360.00000000      46.48791626       1.55408178
      13.70000000      90.00000000     360.00000000      46.48796015       1.55408325
      13.80000000      90.00000000     360.00000000      46.48800404       1.55408472
      13.90000000      90.00000000     360.00000000      46.48804794       1.55408619
      14.00000000      90.00000000     360.00000000      46.48809185       1.55408765
      14.10000000      90.00000000     360.00000000      46.48813576       1.55408912
      14.20000000      90.00000000     360.00000000      46.48817967       1.55409059
      14.30000000      90.00000000     360.00000000      46.48822359       1.55409206
      14.40000000      90.00000000     360.00000000      46.48826752       1.55409353
      14.50000000      90.00000000     360.00000000      46.48831145       1.55409499
      14.60000000      90.00000000     360.00000000      46.48835539       1.55409646
      14.70000000      90.00000000     360.00000000      46.48839933       1.55409793
      14.80000000      90.00000000     360.00000000      46.48844328       1.55409940
      14.90000000      90.00000000     360.00000000      46.48848724       1.55410087
      15.00000000      90.00000000     360.00000000      46.48853120       1.55410234
      15.10000000      90.00000000     360.00000000      46.48857516       1.55410381
      15.20000000      90.00000000     360.00000000      46.48861913       1.55410528
