 # applied field (T), theta (degree), phi (degree), abs for RE 3-4
     0.00000     0.00000     0.00000     4.20413     0.00000     0.00000     4.20413
     0.10000     0.20815   360.00000     4.20411     0.23801   360.00000     4.20412
     0.20000     0.45739   360.00000     4.20406     0.52302   360.00000     4.20410
     0.30000     0.66556   360.00000     4.20398     0.76105   360.00000     4.20407
     0.40000     0.87375   360.00000     4.20387     0.99909   360.00000     4.20402
     0.50000     1.08195   360.00000     4.20374     1.23715   360.00000     4.20397
     0.60000     1.33130   360.00000     4.20354     1.52223   360.00000     4.20389
     0.70000     1.53957   360.00000     4.20334     1.76034   360.00000     4.20381
     0.80000     1.74789   360.00000     4.20311     1.99848   360.00000     4.20371
     0.90000     1.99739   360.00000     4.20280     2.28368   360.00000     4.20359
     1.00000     2.20581   360.00000     4.20251     2.52190   360.00000     4.20347
     1.10000     2.41429   360.00000     4.20219     2.76016   360.00000     4.20334
     1.20000     2.66401   360.00000     4.20177     3.04553   360.00000     4.20317
     1.30000     2.87264   360.00000     4.20138     3.28390   360.00000     4.20301
     1.40000     3.08134   360.00000     4.20097     3.52233   360.00000     4.20284
     1.50000     3.33135   360.00000     4.20044     3.80791   360.00000     4.20263
     1.60000     3.54024   360.00000     4.19996     4.04647   360.00000     4.20243
     1.70000     3.74922   360.00000     4.19946     4.28511   360.00000     4.20223
     1.80000     3.95829   360.00000     4.19893     4.52381   360.00000     4.20201
     1.90000     4.20878   360.00000     4.19825     4.80975   360.00000     4.20174
     2.00000     4.41809   360.00000     4.19765     5.04863   360.00000     4.20150
     2.10000     4.62752   360.00000     4.19702     5.28760   360.00000     4.20124
     2.20000     4.87845   360.00000     4.19624     5.57387   360.00000     4.20092
     2.30000     5.08815   360.00000     4.19555     5.81303   360.00000     4.20064
     2.40000     5.29799   360.00000     4.19483     6.05230   360.00000     4.20035
     2.50000     5.54943   360.00000     4.19393     6.33895   360.00000     4.19999
     2.60000     5.75957   360.00000     4.19314     6.57844   360.00000     4.19967
     2.70000     5.96987   360.00000     4.19233     6.81805   360.00000     4.19935
     2.80000     6.22189   360.00000     4.19132     7.10513   360.00000     4.19894
     2.90000     6.43253   360.00000     4.19045     7.34500   360.00000     4.19859
     3.00000     6.64335   360.00000     4.18954     7.58499   360.00000     4.19822
     3.10000     6.89601   360.00000     4.18842     7.87254   360.00000     4.19777
     3.20000     7.10721   360.00000     4.18745     8.11281   360.00000     4.19738
     3.30000     7.31860   360.00000     4.18645     8.35323   360.00000     4.19698
     3.40000     7.57197   360.00000     4.18522     8.64130   360.00000     4.19649
     3.50000     7.78379   360.00000     4.18415     8.88203   360.00000     4.19606
     3.60000     8.03769   360.00000     4.18284     9.17050   360.00000     4.19553
     3.70000     8.24996   360.00000     4.18172     9.41156   360.00000     4.19508
     3.80000     8.46244   360.00000     4.18056     9.65277   360.00000     4.19462
     3.90000     8.71717   360.00000     4.17914     9.94184   360.00000     4.19405
     4.00000     8.93015   360.00000     4.17792    10.18342   360.00000     4.19357
     4.10000     9.14335   360.00000     4.17667    10.42517   360.00000     4.19307
     4.20000     9.39897   360.00000     4.17513    10.71489   360.00000     4.19246
     4.30000     9.61271   360.00000     4.17382    10.95703   360.00000     4.19194
     4.40000     9.86899   360.00000     4.17221    11.24723   360.00000     4.19130
     4.50000    10.08328   360.00000     4.17083    11.48977   360.00000     4.19075
     4.60000    10.29784   360.00000     4.16943    11.73250   360.00000     4.19020
     4.70000    10.55512   360.00000     4.16770    12.02343   360.00000     4.18952
     4.80000    10.77028   360.00000     4.16623    12.26660   360.00000     4.18894
     4.90000    11.02829   360.00000     4.16443    12.55806   360.00000     4.18822
     5.00000    11.24407   360.00000     4.16289    12.80167   360.00000     4.18762
     5.10000    11.50284   360.00000     4.16102    13.09369   360.00000     4.18688
     5.20000    11.71927   360.00000     4.15942    13.33777   360.00000     4.18625
     5.30000    11.93601   360.00000     4.15779    13.58207   360.00000     4.18561
     5.40000    12.19595   360.00000     4.15580    13.87493   360.00000     4.18483
     5.50000    12.41338   360.00000     4.15411    14.11972   360.00000     4.18417
     5.60000    12.67417   360.00000     4.15204    14.41319   360.00000     4.18336
     5.70000    12.89231   360.00000     4.15028    14.65849   360.00000     4.18268
     5.80000    13.15397   360.00000     4.14814    14.95258   360.00000     4.18184
     5.90000    13.37286   360.00000     4.14632    15.19842   360.00000     4.18113
     6.00000    13.63544   360.00000     4.14410    15.49316   360.00000     4.18027
     6.10000    13.85509   360.00000     4.14221    15.73954   360.00000     4.17954
     6.20000    14.11861   360.00000     4.13992    16.03495   360.00000     4.17864
     6.30000    14.33907   360.00000     4.13797    16.28190   360.00000     4.17789
     6.40000    14.60356   360.00000     4.13559    16.57799   360.00000     4.17697
     6.50000    14.82484   360.00000     4.13358    16.82553   360.00000     4.17619
     6.60000    15.09034   360.00000     4.13113    17.12233   360.00000     4.17525
     6.70000    15.31248   360.00000     4.12906    17.37047   360.00000     4.17445
     6.80000    15.57902   360.00000     4.12654    17.66800   360.00000     4.17348
     6.90000    15.84615   360.00000     4.12397    17.96594   360.00000     4.17249
     7.00000    16.06966   360.00000     4.12180    18.21503   360.00000     4.17166
     7.10000    16.33788   360.00000     4.11916    18.51373   360.00000     4.17064
     7.20000    16.56232   360.00000     4.11692    18.76347   360.00000     4.16979
     7.30000    16.83167   360.00000     4.11421    19.06295   360.00000     4.16875
     7.40000    17.10164   360.00000     4.11145    19.36287   360.00000     4.16770
     7.50000    17.32757   360.00000     4.10912    19.61363   360.00000     4.16681
     7.60000    17.59873   360.00000     4.10629    19.91436   360.00000     4.16573
     7.70000    17.87054   360.00000     4.10342    20.21554   360.00000     4.16464
     7.80000    18.09802   360.00000     4.10100    20.46736   360.00000     4.16372
     7.90000    18.37107   360.00000     4.09805    20.76938   360.00000     4.16261
     8.00000    18.64481   360.00000     4.09507    21.07187   360.00000     4.16147
     8.10000    18.87391   360.00000     4.09255    21.32480   360.00000     4.16053
     8.20000    19.14894   360.00000     4.08950    21.62816   360.00000     4.15937
     8.30000    19.42468   360.00000     4.08640    21.93200   360.00000     4.15820
     8.40000    19.65548   360.00000     4.08380    22.18607   360.00000     4.15722
     8.50000    19.93256   360.00000     4.08063    22.49081   360.00000     4.15603
     8.60000    20.21039   360.00000     4.07743    22.79605   360.00000     4.15482
     8.70000    20.48897   360.00000     4.07419    23.10180   360.00000     4.15360
     8.80000    20.72218   360.00000     4.07146    23.35747   360.00000     4.15258
     8.90000    21.00218   360.00000     4.06815    23.66415   360.00000     4.15134
     9.00000    21.28297   360.00000     4.06480    23.97136   360.00000     4.15009
     9.10000    21.56456   360.00000     4.06142    24.27909   360.00000     4.14882
     9.20000    21.84695   360.00000     4.05800    24.58735   360.00000     4.14754
     9.30000    22.08337   360.00000     4.05512    24.84513   360.00000     4.14647
     9.40000    22.36728   360.00000     4.05163    25.15437   360.00000     4.14517
     9.50000    22.65203   360.00000     4.04811    25.46416   360.00000     4.14386
     9.60000    22.93762   360.00000     4.04456    25.77450   360.00000     4.14253
     9.70000    23.22408   360.00000     4.04097    26.08540   360.00000     4.14120
     9.80000    23.51141   360.00000     4.03734    26.39686   360.00000     4.13985
     9.90000    23.79963   360.00000     4.03368    26.70888   360.00000     4.13849
    10.00000    24.08873   360.00000     4.02999    27.02147   360.00000     4.13712
    10.10000    24.37875   360.00000     4.02627    27.33464   360.00000     4.13573
    10.20000    24.66968   360.00000     4.02251    27.64839   360.00000     4.13434
    10.30000    24.96153   360.00000     4.01872    27.96272   360.00000     4.13294
    10.40000    25.25433   360.00000     4.01490    28.27765   360.00000     4.13152
    10.50000    25.54807   360.00000     4.01105    28.59317   360.00000     4.13010
    10.60000    25.84278   360.00000     4.00717    28.90928   360.00000     4.12866
    10.70000    26.13846   360.00000     4.00326    29.22601   360.00000     4.12721
    10.80000    26.43511   360.00000     3.99932    29.54334   360.00000     4.12575
    10.90000    26.73277   360.00000     3.99536    29.86128   360.00000     4.12429
    11.00000    27.03143   360.00000     3.99136    30.17985   360.00000     4.12281
    11.10000    27.38068   360.00000     3.98667    30.55182   360.00000     4.12107
    11.20000    27.68155   360.00000     3.98261    30.87174   360.00000     4.11957
    11.30000    27.98347   360.00000     3.97853    31.19229   360.00000     4.11806
    11.40000    28.28644   360.00000     3.97443    31.51347   360.00000     4.11654
    11.50000    28.59046   360.00000     3.97030    31.83530   360.00000     4.11501
    11.60000    28.94606   360.00000     3.96546    32.21112   360.00000     4.11321
    11.70000    29.25242   360.00000     3.96128    32.53435   360.00000     4.11167
    11.80000    29.55989   360.00000     3.95708    32.85824   360.00000     4.11011
    11.90000    29.91954   360.00000     3.95215    33.23647   360.00000     4.10828
    12.00000    30.22942   360.00000     3.94791    33.56179   360.00000     4.10670
    12.10000    30.54043   360.00000     3.94364    33.88778   360.00000     4.10512
    12.20000    30.90426   360.00000     3.93864    34.26849   360.00000     4.10325
    12.30000    31.21776   360.00000     3.93434    34.59594   360.00000     4.10165
    12.40000    31.58453   360.00000     3.92930    34.97836   360.00000     4.09977
    12.50000    31.90057   360.00000     3.92496    35.30729   360.00000     4.09815
    12.60000    32.27032   360.00000     3.91988    35.69145   360.00000     4.09625
    12.70000    32.58896   360.00000     3.91551    36.02188   360.00000     4.09461
    12.80000    32.96176   360.00000     3.91040    36.40780   360.00000     4.09269
    12.90000    33.33623   360.00000     3.90527    36.79467   360.00000     4.09076
    13.00000    33.65894   360.00000     3.90087    37.12743   360.00000     4.08910
    13.10000    34.03655   360.00000     3.89571    37.51610   360.00000     4.08715
    13.20000    34.41586   360.00000     3.89055    37.90574   360.00000     4.08520
    13.30000    34.79690   360.00000     3.88537    38.29635   360.00000     4.08323
    13.40000    35.12529   360.00000     3.88094    38.63233   360.00000     4.08154
    13.50000    35.50958   360.00000     3.87575    39.02477   360.00000     4.07956
    13.60000    35.89563   360.00000     3.87056    39.41820   360.00000     4.07758
    13.70000    36.28346   360.00000     3.86537    39.81263   360.00000     4.07558
    13.80000    36.67309   360.00000     3.86017    40.20806   360.00000     4.07358
    13.90000    37.06453   360.00000     3.85498    40.60449   360.00000     4.07157
    14.00000    37.45778   360.00000     3.84979    41.00194   360.00000     4.06955
    14.10000    37.85288   360.00000     3.84461    41.40040   360.00000     4.06753
    14.20000    38.24981   360.00000     3.83943    41.79988   360.00000     4.06551
    14.30000    38.70533   360.00000     3.83352    42.25731   360.00000     4.06318
    14.40000    39.10626   360.00000     3.82836    42.65899   360.00000     4.06114
    14.50000    39.50906   360.00000     3.82321    43.06170   360.00000     4.05910
    14.60000    39.97133   360.00000     3.81735    43.52284   360.00000     4.05675
    14.70000    40.37820   360.00000     3.81224    43.92777   360.00000     4.05470
    14.80000    40.78698   360.00000     3.80715    44.33375   360.00000     4.05264
    14.90000    41.25610   360.00000     3.80135    44.79864   360.00000     4.05029
    15.00000    41.66899   360.00000     3.79630    45.20686   360.00000     4.04823
    15.10000    42.14283   360.00000     3.79056    45.67433   360.00000     4.04586
    15.20000    42.61920   360.00000     3.78486    46.14318   360.00000     4.04349
    15.30000    43.09811   360.00000     3.77919    46.61342   360.00000     4.04112
    15.40000    43.51958   360.00000     3.77427    47.02631   360.00000     4.03906
    15.50000    44.00326   360.00000     3.76868    47.49915   360.00000     4.03669
    15.60000    44.48949   360.00000     3.76315    47.97338   360.00000     4.03432
    15.70000    44.97827   360.00000     3.75766    48.44901   360.00000     4.03195
    15.80000    45.53086   360.00000     3.75154    48.98547   360.00000     4.02927
    15.90000    46.02507   360.00000     3.74616    49.46407   360.00000     4.02691
    16.00000    46.52182   360.00000     3.74085    49.94407   360.00000     4.02454
    16.10000    47.02112   360.00000     3.73559    50.42547   360.00000     4.02218
    16.20000    47.58552   360.00000     3.72975    50.96844   360.00000     4.01953
    16.30000    48.15313   360.00000     3.72399    51.51320   360.00000     4.01687
    16.40000    48.66064   360.00000     3.71895    51.99916   360.00000     4.01453
    16.50000    49.23427   360.00000     3.71336    52.54727   360.00000     4.01189
    16.60000    49.81105   360.00000     3.70787    53.09716   360.00000     4.00926
    16.70000    50.39097   360.00000     3.70248    53.64882   360.00000     4.00664
    16.80000    50.97400   360.00000     3.69718    54.20225   360.00000     4.00403
    16.90000    51.56013   360.00000     3.69199    54.75744   360.00000     4.00144
    17.00000    52.21469   360.00000     3.68634    55.37617   360.00000     3.99856
    17.10000    52.80726   360.00000     3.68138    55.93508   360.00000     3.99600
    17.20000    53.46890   360.00000     3.67599    56.55793   360.00000     3.99316
    17.30000    54.13420   360.00000     3.67075    57.18293   360.00000     3.99033
    17.40000    54.80311   360.00000     3.66564    57.81008   360.00000     3.98754
    17.50000    55.47558   360.00000     3.66069    58.43936   360.00000     3.98476
    17.60000    56.21911   360.00000     3.65540    59.13383   360.00000     3.98173
    17.70000    56.89887   360.00000     3.65077    59.76755   360.00000     3.97902
    17.80000    57.65027   360.00000     3.64583    60.46687   360.00000     3.97605
    17.90000    58.40568   360.00000     3.64109    61.16870   360.00000     3.97312
    18.00000    59.23404   360.00000     3.63612    61.93701   360.00000     3.96997
    18.10000    59.99756   360.00000     3.63177    62.64400   360.00000     3.96713
    18.20000    60.83456   360.00000     3.62723    63.41788   360.00000     3.96407
    18.30000    61.67590   360.00000     3.62292    64.19460   360.00000     3.96107
    18.40000    62.59194   360.00000     3.61849    65.03908   360.00000     3.95788
    18.50000    63.51278   360.00000     3.61433    65.88680   360.00000     3.95475
    18.60000    64.50951   360.00000     3.61012    66.80315   360.00000     3.95147
    18.70000    65.51145   360.00000     3.60620    67.72310   360.00000     3.94828
    18.80000    66.51841   360.00000     3.60257    68.64655   360.00000     3.94519
    18.90000    67.67488   360.00000     3.59875    69.70590   360.00000     3.94176
    19.00000    68.83739   360.00000     3.59528    70.76954   360.00000     3.93848
    19.10000    70.07877   360.00000     3.59195    71.90411   360.00000     3.93514
    19.20000    71.39981   360.00000     3.58881    73.11021   360.00000     3.93179
    19.30000    72.80125   360.00000     3.58591    74.38839   360.00000     3.92847
    19.40000    74.43226   360.00000     3.58302    75.87440   360.00000     3.92490
    19.50000    76.14636   360.00000     3.58051    77.43445   360.00000     3.92152
    19.60000    78.16899   360.00000     3.57814    79.27331   360.00000     3.91800
    19.70000    80.65443   360.00000     3.57596    81.53033   360.00000     3.91442
    19.80000    84.13848   360.00000     3.57403    84.69021   360.00000     3.91079
    19.90000    90.00000   360.00000     3.57295    90.00000   360.00000     3.90846
    20.00000    90.00000   360.00000     3.57308    90.00000   360.00000     3.90855
    20.10000    90.00000   360.00000     3.57322    90.00000   360.00000     3.90865
    20.20000    90.00000   360.00000     3.57335    90.00000   360.00000     3.90874
    20.30000    90.00000   360.00000     3.57348    90.00000   360.00000     3.90884
    20.40000    90.00000   360.00000     3.57361    90.00000   360.00000     3.90893
    20.50000    90.00000   360.00000     3.57374    90.00000   360.00000     3.90903
    20.60000    90.00000   360.00000     3.57388    90.00000   360.00000     3.90912
    20.70000    90.00000   360.00000     3.57401    90.00000   360.00000     3.90921
    20.80000    90.00000   360.00000     3.57414    90.00000   360.00000     3.90931
    20.90000    90.00000   360.00000     3.57427    90.00000   360.00000     3.90940
    21.00000    90.00000   360.00000     3.57440    90.00000   360.00000     3.90950
    21.10000    90.00000   360.00000     3.57453    90.00000   360.00000     3.90959
    21.20000    90.00000   360.00000     3.57466    90.00000   360.00000     3.90968
    21.30000    90.00000   360.00000     3.57480    90.00000   360.00000     3.90978
    21.40000    90.00000   360.00000     3.57493    90.00000   360.00000     3.90987
    21.50000    90.00000   360.00000     3.57506    90.00000   360.00000     3.90997
    21.60000    90.00000   360.00000     3.57519    90.00000   360.00000     3.91006
    21.70000    90.00000   360.00000     3.57532    90.00000   360.00000     3.91015
    21.80000    90.00000   360.00000     3.57545    90.00000   360.00000     3.91025
    21.90000    90.00000   360.00000     3.57558    90.00000   360.00000     3.91034
    22.00000    90.00000   360.00000     3.57571    90.00000   360.00000     3.91044
    22.10000    90.00000   360.00000     3.57585    90.00000   360.00000     3.91053
    22.20000    90.00000   360.00000     3.57598    90.00000   360.00000     3.91062
    22.30000    90.00000   360.00000     3.57611    90.00000   360.00000     3.91072
    22.40000    90.00000   360.00000     3.57624    90.00000   360.00000     3.91081
    22.50000    90.00000   360.00000     3.57637    90.00000   360.00000     3.91091
    22.60000    90.00000   360.00000     3.57650    90.00000   360.00000     3.91100
    22.70000    90.00000   360.00000     3.57663    90.00000   360.00000     3.91109
    22.80000    90.00000   360.00000     3.57676    90.00000   360.00000     3.91119
    22.90000    90.00000   360.00000     3.57689    90.00000   360.00000     3.91128
    23.00000    90.00000   360.00000     3.57702    90.00000   360.00000     3.91137
    23.10000    90.00000   360.00000     3.57715    90.00000   360.00000     3.91147
    23.20000    90.00000   360.00000     3.57729    90.00000   360.00000     3.91156
    23.30000    90.00000   360.00000     3.57742    90.00000   360.00000     3.91165
    23.40000    90.00000   360.00000     3.57755    90.00000   360.00000     3.91175
    23.50000    90.00000   360.00000     3.57768    90.00000   360.00000     3.91184
    23.60000    90.00000   360.00000     3.57781    90.00000   360.00000     3.91193
    23.70000    90.00000   360.00000     3.57794    90.00000   360.00000     3.91203
    23.80000    90.00000   360.00000     3.57807    90.00000   360.00000     3.91212
    23.90000    90.00000   360.00000     3.57820    90.00000   360.00000     3.91221
    24.00000    90.00000   360.00000     3.57833    90.00000   360.00000     3.91231
    24.10000    90.00000   360.00000     3.57846    90.00000   360.00000     3.91240
    24.20000    90.00000   360.00000     3.57859    90.00000   360.00000     3.91249
    24.30000    90.00000   360.00000     3.57872    90.00000   360.00000     3.91259
    24.40000    90.00000   360.00000     3.57885    90.00000   360.00000     3.91268
    24.50000    90.00000   360.00000     3.57898    90.00000   360.00000     3.91277
    24.60000    90.00000   360.00000     3.57911    90.00000   360.00000     3.91287
    24.70000    90.00000   360.00000     3.57924    90.00000   360.00000     3.91296
    24.80000    90.00000   360.00000     3.57937    90.00000   360.00000     3.91305
    24.90000    90.00000   360.00000     3.57950    90.00000   360.00000     3.91314
    25.00000    90.00000   360.00000     3.57963    90.00000   360.00000     3.91324
    25.10000    90.00000   360.00000     3.57976    90.00000   360.00000     3.91333
    25.20000    90.00000   360.00000     3.57989    90.00000   360.00000     3.91342
    25.30000    90.00000   360.00000     3.58002    90.00000   360.00000     3.91352
    25.40000    90.00000   360.00000     3.58015    90.00000   360.00000     3.91361
    25.50000    90.00000   360.00000     3.58028    90.00000   360.00000     3.91370
    25.60000    90.00000   360.00000     3.58041    90.00000   360.00000     3.91379
    25.70000    90.00000   360.00000     3.58054    90.00000   360.00000     3.91389
    25.80000    90.00000   360.00000     3.58067    90.00000   360.00000     3.91398
    25.90000    90.00000   360.00000     3.58080    90.00000   360.00000     3.91407
    26.00000    90.00000   360.00000     3.58093    90.00000   360.00000     3.91417
    26.10000    90.00000   360.00000     3.58106    90.00000   360.00000     3.91426
    26.20000    90.00000   360.00000     3.58119    90.00000   360.00000     3.91435
    26.30000    90.00000   360.00000     3.58132    90.00000   360.00000     3.91444
    26.40000    90.00000   360.00000     3.58145    90.00000   360.00000     3.91454
    26.50000    90.00000   360.00000     3.58158    90.00000   360.00000     3.91463
    26.60000    90.00000   360.00000     3.58171    90.00000   360.00000     3.91472
    26.70000    90.00000   360.00000     3.58184    90.00000   360.00000     3.91481
    26.80000    90.00000   360.00000     3.58197    90.00000   360.00000     3.91491
    26.90000    90.00000   360.00000     3.58210    90.00000   360.00000     3.91500
    27.00000    90.00000   360.00000     3.58223    90.00000   360.00000     3.91509
    27.10000    90.00000   360.00000     3.58236    90.00000   360.00000     3.91518
    27.20000    90.00000   360.00000     3.58249    90.00000   360.00000     3.91527
    27.30000    90.00000   360.00000     3.58261    90.00000   360.00000     3.91537
    27.40000    90.00000   360.00000     3.58274    90.00000   360.00000     3.91546
    27.50000    90.00000   360.00000     3.58287    90.00000   360.00000     3.91555
    27.60000    90.00000   360.00000     3.58300    90.00000   360.00000     3.91564
    27.70000    90.00000   360.00000     3.58313    90.00000   360.00000     3.91574
    27.80000    90.00000   360.00000     3.58326    90.00000   360.00000     3.91583
    27.90000    90.00000   360.00000     3.58339    90.00000   360.00000     3.91592
    28.00000    90.00000   360.00000     3.58352    90.00000   360.00000     3.91601
    28.10000    90.00000   360.00000     3.58365    90.00000   360.00000     3.91610
    28.20000    90.00000   360.00000     3.58378    90.00000   360.00000     3.91620
    28.30000    90.00000   360.00000     3.58391    90.00000   360.00000     3.91629
    28.40000    90.00000   360.00000     3.58403    90.00000   360.00000     3.91638
    28.50000    90.00000   360.00000     3.58416    90.00000   360.00000     3.91647
    28.60000    90.00000   360.00000     3.58429    90.00000   360.00000     3.91656
    28.70000    90.00000   360.00000     3.58442    90.00000   360.00000     3.91666
    28.80000    90.00000   360.00000     3.58455    90.00000   360.00000     3.91675
    28.90000    90.00000   360.00000     3.58468    90.00000   360.00000     3.91684
    29.00000    90.00000   360.00000     3.58481    90.00000   360.00000     3.91693
    29.10000    90.00000   360.00000     3.58494    90.00000   360.00000     3.91702
    29.20000    90.00000   360.00000     3.58506    90.00000   360.00000     3.91711
    29.30000    90.00000   360.00000     3.58519    90.00000   360.00000     3.91721
    29.40000    90.00000   360.00000     3.58532    90.00000   360.00000     3.91730
    29.50000    90.00000   360.00000     3.58545    90.00000   360.00000     3.91739
    29.60000    90.00000   360.00000     3.58558    90.00000   360.00000     3.91748
    29.70000    90.00000   360.00000     3.58571    90.00000   360.00000     3.91757
    29.80000    90.00000   360.00000     3.58583    90.00000   360.00000     3.91766
    29.90000    90.00000   360.00000     3.58596    90.00000   360.00000     3.91776
    30.00000    90.00000   360.00000     3.58609    90.00000   360.00000     3.91785
    30.10000    90.00000   360.00000     3.58622    90.00000   360.00000     3.91794
    30.20000    90.00000   360.00000     3.58635    90.00000   360.00000     3.91803
    30.30000    90.00000   360.00000     3.58648    90.00000   360.00000     3.91812
    30.40000    90.00000   360.00000     3.58660    90.00000   360.00000     3.91821
    30.50000    90.00000   360.00000     3.58673    90.00000   360.00000     3.91830
    30.60000    90.00000   360.00000     3.58686    90.00000   360.00000     3.91840
    30.70000    90.00000   360.00000     3.58699    90.00000   360.00000     3.91849
    30.80000    90.00000   360.00000     3.58712    90.00000   360.00000     3.91858
    30.90000    90.00000   360.00000     3.58724    90.00000   360.00000     3.91867
    31.00000    90.00000   360.00000     3.58737    90.00000   360.00000     3.91876
    31.10000    90.00000   360.00000     3.58750    90.00000   360.00000     3.91885
    31.20000    90.00000   360.00000     3.58763    90.00000   360.00000     3.91894
    31.30000    90.00000   360.00000     3.58776    90.00000   360.00000     3.91903
    31.40000    90.00000   360.00000     3.58788    90.00000   360.00000     3.91912
    31.50000    90.00000   360.00000     3.58801    90.00000   360.00000     3.91922
    31.60000    90.00000   360.00000     3.58814    90.00000   360.00000     3.91931
    31.70000    90.00000   360.00000     3.58827    90.00000   360.00000     3.91940
    31.80000    90.00000   360.00000     3.58840    90.00000   360.00000     3.91949
    31.90000    90.00000   360.00000     3.58852    90.00000   360.00000     3.91958
    32.00000    90.00000   360.00000     3.58865    90.00000   360.00000     3.91967
    32.10000    90.00000   360.00000     3.58878    90.00000   360.00000     3.91976
    32.20000    90.00000   360.00000     3.58891    90.00000   360.00000     3.91985
    32.30000    90.00000   360.00000     3.58903    90.00000   360.00000     3.91994
    32.40000    90.00000   360.00000     3.58916    90.00000   360.00000     3.92003
    32.50000    90.00000   360.00000     3.58929    90.00000   360.00000     3.92012
    32.60000    90.00000   360.00000     3.58942    90.00000   360.00000     3.92021
    32.70000    90.00000   360.00000     3.58954    90.00000   360.00000     3.92031
    32.80000    90.00000   360.00000     3.58967    90.00000   360.00000     3.92040
    32.90000    90.00000   360.00000     3.58980    90.00000   360.00000     3.92049
    33.00000    90.00000   360.00000     3.58992    90.00000   360.00000     3.92058
    33.10000    90.00000   360.00000     3.59005    90.00000   360.00000     3.92067
    33.20000    90.00000   360.00000     3.59018    90.00000   360.00000     3.92076
    33.30000    90.00000   360.00000     3.59031    90.00000   360.00000     3.92085
    33.40000    90.00000   360.00000     3.59043    90.00000   360.00000     3.92094
    33.50000    90.00000   360.00000     3.59056    90.00000   360.00000     3.92103
    33.60000    90.00000   360.00000     3.59069    90.00000   360.00000     3.92112
    33.70000    90.00000   360.00000     3.59081    90.00000   360.00000     3.92121
    33.80000    90.00000   360.00000     3.59094    90.00000   360.00000     3.92130
    33.90000    90.00000   360.00000     3.59107    90.00000   360.00000     3.92139
    34.00000    90.00000   360.00000     3.59120    90.00000   360.00000     3.92148
    34.10000    90.00000   360.00000     3.59132    90.00000   360.00000     3.92157
    34.20000    90.00000   360.00000     3.59145    90.00000   360.00000     3.92166
    34.30000    90.00000   360.00000     3.59158    90.00000   360.00000     3.92175
    34.40000    90.00000   360.00000     3.59170    90.00000   360.00000     3.92184
    34.50000    90.00000   360.00000     3.59183    90.00000   360.00000     3.92193
    34.60000    90.00000   360.00000     3.59196    90.00000   360.00000     3.92202
    34.70000    90.00000   360.00000     3.59208    90.00000   360.00000     3.92211
    34.80000    90.00000   360.00000     3.59221    90.00000   360.00000     3.92220
    34.90000    90.00000   360.00000     3.59234    90.00000   360.00000     3.92229
    35.00000    90.00000   360.00000     3.59246    90.00000   360.00000     3.92238
    35.10000    90.00000   360.00000     3.59259    90.00000   360.00000     3.92247
    35.20000    90.00000   360.00000     3.59272    90.00000   360.00000     3.92256
    35.30000    90.00000   360.00000     3.59284    90.00000   360.00000     3.92265
    35.40000    90.00000   360.00000     3.59297    90.00000   360.00000     3.92274
    35.50000    90.00000   360.00000     3.59309    90.00000   360.00000     3.92283
    35.60000    90.00000   360.00000     3.59322    90.00000   360.00000     3.92292
    35.70000    90.00000   360.00000     3.59335    90.00000   360.00000     3.92301
    35.80000    90.00000   360.00000     3.59347    90.00000   360.00000     3.92310
    35.90000    90.00000   360.00000     3.59360    90.00000   360.00000     3.92319
    36.00000    90.00000   360.00000     3.59373    90.00000   360.00000     3.92328
    36.10000    90.00000   360.00000     3.59385    90.00000   360.00000     3.92337
    36.20000    90.00000   360.00000     3.59398    90.00000   360.00000     3.92346
    36.30000    90.00000   360.00000     3.59410    90.00000   360.00000     3.92355
    36.40000    90.00000   360.00000     3.59423    90.00000   360.00000     3.92364
    36.50000    90.00000   360.00000     3.59436    90.00000   360.00000     3.92373
    36.60000    90.00000   360.00000     3.59448    90.00000   360.00000     3.92382
    36.70000    90.00000   360.00000     3.59461    90.00000   360.00000     3.92391
    36.80000    90.00000   360.00000     3.59473    90.00000   360.00000     3.92400
    36.90000    90.00000   360.00000     3.59486    90.00000   360.00000     3.92409
    37.00000    90.00000   360.00000     3.59499    90.00000   360.00000     3.92418
    37.10000    90.00000   360.00000     3.59511    90.00000   360.00000     3.92426
    37.20000    90.00000   360.00000     3.59524    90.00000   360.00000     3.92435
    37.30000    90.00000   360.00000     3.59536    90.00000   360.00000     3.92444
    37.40000    90.00000   360.00000     3.59549    90.00000   360.00000     3.92453
    37.50000    90.00000   360.00000     3.59561    90.00000   360.00000     3.92462
    37.60000    90.00000   360.00000     3.59574    90.00000   360.00000     3.92471
    37.70000    90.00000   360.00000     3.59587    90.00000   360.00000     3.92480
    37.80000    90.00000   360.00000     3.59599    90.00000   360.00000     3.92489
    37.90000    90.00000   360.00000     3.59612    90.00000   360.00000     3.92498
    38.00000    90.00000   360.00000     3.59624    90.00000   360.00000     3.92507
    38.10000    90.00000   360.00000     3.59637    90.00000   360.00000     3.92516
    38.20000    90.00000   360.00000     3.59649    90.00000   360.00000     3.92525
    38.30000    90.00000   360.00000     3.59662    90.00000   360.00000     3.92533
    38.40000    90.00000   360.00000     3.59674    90.00000   360.00000     3.92542
    38.50000    90.00000   360.00000     3.59687    90.00000   360.00000     3.92551
    38.60000    90.00000   360.00000     3.59700    90.00000   360.00000     3.92560
    38.70000    90.00000   360.00000     3.59712    90.00000   360.00000     3.92569
    38.80000    90.00000   360.00000     3.59725    90.00000   360.00000     3.92578
    38.90000    90.00000   360.00000     3.59737    90.00000   360.00000     3.92587
    39.00000    90.00000   360.00000     3.59750    90.00000   360.00000     3.92596
    39.10000    90.00000   360.00000     3.59762    90.00000   360.00000     3.92605
    39.20000    90.00000   360.00000     3.59775    90.00000   360.00000     3.92613
    39.30000    90.00000   360.00000     3.59787    90.00000   360.00000     3.92622
    39.40000    90.00000   360.00000     3.59800    90.00000   360.00000     3.92631
    39.50000    90.00000   360.00000     3.59812    90.00000   360.00000     3.92640
    39.60000    90.00000   360.00000     3.59825    90.00000   360.00000     3.92649
    39.70000    90.00000   360.00000     3.59837    90.00000   360.00000     3.92658
    39.80000    90.00000   360.00000     3.59850    90.00000   360.00000     3.92667
    39.90000    90.00000   360.00000     3.59862    90.00000   360.00000     3.92676
    40.00000    90.00000   360.00000     3.59875    90.00000   360.00000     3.92684
