 # applied field (T), theta (degree), phi (degree), abs for RE 3-4
     0.00000     1.58944   315.00000     0.30293     1.58944   225.00000     0.30293
     0.10000     1.76695   318.80048     0.30288     1.41946   229.73737     0.30299
     0.20000     1.94965   321.89882     0.30284     1.26053   235.72797     0.30306
     0.30000     2.13603   324.46527     0.30280     1.11797   243.36814     0.30313
     0.40000     2.32505   326.62313     0.30277     0.99962   253.06283     0.30320
     0.50000     2.51602   328.46244     0.30274     0.91586   264.99161     0.30328
     0.60000     2.70846   330.04981     0.30272     0.87774   278.69736     0.30337
     0.70000     2.90205   331.43519     0.30271     0.89233   292.87968     0.30347
     0.80000     3.09657   332.65658     0.30271     0.95840   305.95765     0.30357
     0.90000     3.29190   333.74329     0.30271     1.06759   316.96201     0.30368
     1.00000     3.48793   334.71823     0.30272     1.20935   325.75101     0.30379
     1.10000     3.68463   335.59951     0.30273     1.37467   332.63986     0.30391
     1.20000     3.88198   336.40161     0.30275     1.55703   338.04674     0.30403
     1.30000     4.07999   337.13626     0.30278     1.75203   342.33787     0.30416
     1.40000     4.27868   337.81298     0.30281     1.95677   345.79431     0.30430
     1.50000     4.47810   338.43965     0.30286     2.16932   348.62186     0.30444
     1.60000     4.67830   339.02277     0.30290     2.38839   350.96948     0.30458
     1.70000     4.87932   339.56779     0.30296     2.61311   352.94533     0.30473
     1.80000     5.08125   340.07929     0.30302     2.84286   354.62883     0.30489
     1.90000     5.28414   340.56113     0.30308     3.07724   356.07906     0.30505
     2.00000     5.51013   341.05455     0.30317     3.34284   357.50094     0.30524
     2.10000     5.71533   341.48482     0.30324     3.58627   358.59097     0.30541
     2.20000     5.92175   341.89416     0.30333     3.83368   359.55569     0.30559
     2.30000     6.12947   342.28466     0.30342     4.08500     0.41540     0.30577
     2.40000     6.36134   342.69028     0.30353     4.36938     1.29133     0.30598
     2.50000     6.57211   343.04715     0.30364     4.62890     1.97746     0.30617
     2.60000     6.80769   343.42014     0.30377     4.92264     2.68700     0.30639
     2.70000     7.02190   343.74926     0.30388     5.19033     3.24673     0.30659
     2.80000     7.26165   344.09513     0.30402     5.49345     3.83283     0.30682
     2.90000     7.47972   344.40095     0.30415     5.76937     4.29762     0.30702
     3.00000     7.72409   344.72390     0.30431     6.08198     4.78953     0.30726
     3.10000     7.97111   345.03635     0.30447     6.39973     5.24015     0.30751
     3.20000     8.19586   345.31308     0.30461     6.68852     5.59943     0.30772
     3.30000     8.44822   345.60719     0.30479     7.01602     5.98489     0.30797
     3.40000     8.70360   345.89274     0.30497     7.34880     6.34105     0.30823
     3.50000     8.96214   346.17024     0.30515     7.68693     6.67096     0.30848
     3.60000     9.22395   346.44014     0.30535     8.03045     6.97723     0.30874
     3.70000     9.51626   346.72642     0.30557     8.41698     7.30149     0.30904
     3.80000     9.78546   346.98184     0.30577     8.77214     7.56471     0.30930
     3.90000    10.05831   347.23071     0.30598     9.13286     7.81050     0.30957
     4.00000    10.36350   347.49569     0.30623     9.53897     8.07306     0.30988
     4.10000    10.64452   347.73187     0.30645     9.91164     8.28657     0.31015
     4.20000    10.95920   347.98383     0.30670    10.33134     8.51586     0.31046
     4.30000    11.27914   348.22939     0.30696    10.75831     8.72972     0.31077
     4.40000    11.60448   348.46873     0.30723    11.19261     8.92945     0.31108
     4.50000    11.93538   348.70200     0.30750    11.63426     9.11622     0.31139
     4.60000    12.27199   348.92933     0.30777    12.08330     9.29109     0.31170
     4.70000    12.64732   349.17044     0.30808    12.58535     9.47644     0.31205
     4.80000    13.03008   349.40502     0.30840    13.09662     9.64921     0.31240
     4.90000    13.42043   349.63313     0.30872    13.61709     9.81042     0.31275
     5.00000    13.81855   349.85486     0.30905    14.14678     9.96103     0.31309
     5.10000    14.22460   350.07026     0.30937    14.68566    10.10185     0.31344
     5.20000    14.67569   350.29681     0.30974    15.28410    10.24945     0.31382
     5.30000    15.13678   350.51621     0.31011    15.89361    10.38689     0.31419
     5.40000    15.60806   350.72851     0.31048    16.51411    10.51499     0.31456
     5.50000    16.12959   350.94963     0.31088    17.19903    10.64754     0.31497
     5.60000    16.66368   351.16268     0.31129    17.89681    10.77062     0.31536
     5.70000    17.25266   351.38247     0.31173    18.66303    10.89639     0.31579
     5.80000    17.85684   351.59310     0.31218    19.44389    11.01279     0.31621
     5.90000    18.52104   351.80815     0.31265    20.29719    11.13050     0.31665
     6.00000    19.24936   352.02576     0.31316    21.22606    11.24824     0.31711
     6.10000    20.04624   352.24392     0.31369    22.23364    11.36491     0.31759
     6.20000    92.41716   349.12131     0.32414    87.58284    10.87869     0.32414
     6.30000    92.41629   349.12492     0.32416    87.58371    10.87508     0.32416
     6.40000    92.41543   349.12853     0.32418    87.58457    10.87147     0.32418
     6.50000    92.41456   349.13214     0.32420    87.58544    10.86786     0.32420
     6.60000    92.41370   349.13574     0.32422    87.58630    10.86426     0.32422
     6.70000    92.41284   349.13935     0.32424    87.58716    10.86065     0.32424
     6.80000    92.41197   349.14295     0.32426    87.58803    10.85705     0.32426
     6.90000    92.41111   349.14656     0.32428    87.58889    10.85344     0.32428
     7.00000    92.41025   349.15016     0.32430    87.58975    10.84984     0.32430
     7.10000    92.40939   349.15376     0.32431    87.59061    10.84624     0.32431
     7.20000    92.40852   349.15736     0.32433    87.59148    10.84264     0.32433
     7.30000    92.40766   349.16096     0.32435    87.59234    10.83904     0.32435
     7.40000    92.40680   349.16455     0.32437    87.59320    10.83545     0.32437
     7.50000    92.40594   349.16815     0.32439    87.59406    10.83185     0.32439
     7.60000    92.40508   349.17175     0.32441    87.59492    10.82825     0.32441
     7.70000    92.40422   349.17534     0.32443    87.59578    10.82466     0.32443
     7.80000    92.40336   349.17893     0.32445    87.59664    10.82107     0.32445
     7.90000    92.40250   349.18252     0.32447    87.59750    10.81748     0.32447
     8.00000    92.40164   349.18611     0.32449    87.59836    10.81389     0.32449
     8.10000    92.40078   349.18970     0.32451    87.59922    10.81030     0.32451
     8.20000    92.39992   349.19329     0.32453    87.60008    10.80671     0.32453
     8.30000    92.39906   349.19688     0.32455    87.60094    10.80312     0.32455
     8.40000    92.39821   349.20046     0.32457    87.60179    10.79954     0.32457
     8.50000    92.39735   349.20405     0.32459    87.60265    10.79595     0.32459
     8.60000    92.39649   349.20763     0.32461    87.60351    10.79237     0.32461
     8.70000    92.39563   349.21121     0.32463    87.60437    10.78879     0.32463
     8.80000    92.39477   349.21480     0.32465    87.60523    10.78520     0.32465
     8.90000    92.39392   349.21838     0.32467    87.60608    10.78162     0.32467
     9.00000    92.39306   349.22195     0.32469    87.60694    10.77805     0.32469
     9.10000    92.39220   349.22553     0.32471    87.60780    10.77447     0.32471
     9.20000    92.39135   349.22911     0.32472    87.60865    10.77089     0.32472
     9.30000    92.39049   349.23269     0.32474    87.60951    10.76731     0.32474
     9.40000    92.38964   349.23626     0.32476    87.61036    10.76374     0.32476
     9.50000    92.38878   349.23983     0.32478    87.61122    10.76017     0.32478
     9.60000    92.38793   349.24341     0.32480    87.61207    10.75659     0.32480
     9.70000    92.38707   349.24698     0.32482    87.61293    10.75302     0.32482
     9.80000    92.38622   349.25055     0.32484    87.61378    10.74945     0.32484
     9.90000    92.38536   349.25411     0.32486    87.61464    10.74589     0.32486
    10.00000    92.38451   349.25768     0.32488    87.61549    10.74232     0.32488
    10.10000    92.38366   349.26125     0.32490    87.61634    10.73875     0.32490
    10.20000    92.38280   349.26481     0.32492    87.61720    10.73519     0.32492
    10.30000    92.38195   349.26838     0.32494    87.61805    10.73162     0.32494
    10.40000    92.38110   349.27194     0.32496    87.61890    10.72806     0.32496
    10.50000    92.38024   349.27550     0.32498    87.61976    10.72450     0.32498
    10.60000    92.37939   349.27906     0.32500    87.62061    10.72094     0.32500
    10.70000    92.37854   349.28262     0.32502    87.62146    10.71738     0.32502
    10.80000    92.37769   349.28618     0.32504    87.62231    10.71382     0.32504
    10.90000    92.37684   349.28974     0.32506    87.62316    10.71026     0.32506
    11.00000    92.37599   349.29330     0.32508    87.62401    10.70670     0.32508
    11.10000    92.37514   349.29685     0.32510    87.62486    10.70315     0.32510
    11.20000    92.37429   349.30041     0.32512    87.62571    10.69959     0.32512
    11.30000    92.37344   349.30396     0.32514    87.62656    10.69604     0.32514
    11.40000    92.37259   349.30751     0.32516    87.62741    10.69249     0.32516
    11.50000    92.37174   349.31106     0.32518    87.62826    10.68894     0.32518
    11.60000    92.37089   349.31461     0.32520    87.62911    10.68539     0.32520
    11.70000    92.37004   349.31816     0.32522    87.62996    10.68184     0.32522
    11.80000    92.36919   349.32171     0.32524    87.63081    10.67829     0.32524
    11.90000    92.36834   349.32525     0.32525    87.63166    10.67475     0.32525
    12.00000    92.36749   349.32880     0.32527    87.63251    10.67120     0.32527
    12.10000    92.36664   349.33234     0.32529    87.63336    10.66766     0.32529
    12.20000    92.36580   349.33589     0.32531    87.63420    10.66411     0.32531
    12.30000    92.36495   349.33943     0.32533    87.63505    10.66057     0.32533
    12.40000    92.36410   349.34297     0.32535    87.63590    10.65703     0.32535
    12.50000    92.36326   349.34651     0.32537    87.63674    10.65349     0.32537
    12.60000    92.36241   349.35005     0.32539    87.63759    10.64995     0.32539
    12.70000    92.36156   349.35358     0.32541    87.63844    10.64642     0.32541
    12.80000    92.36072   349.35712     0.32543    87.63928    10.64288     0.32543
    12.90000    92.35987   349.36066     0.32545    87.64013    10.63934     0.32545
    13.00000    92.35903   349.36419     0.32547    87.64097    10.63581     0.32547
    13.10000    92.35818   349.36772     0.32549    87.64182    10.63228     0.32549
    13.20000    92.35734   349.37125     0.32551    87.64266    10.62875     0.32551
    13.30000    92.35649   349.37479     0.32553    87.64351    10.62521     0.32553
    13.40000    92.35565   349.37831     0.32555    87.64435    10.62169     0.32555
    13.50000    92.35480   349.38184     0.32557    87.64520    10.61816     0.32557
    13.60000    92.35396   349.38537     0.32559    87.64604    10.61463     0.32559
    13.70000    92.35312   349.38890     0.32561    87.64688    10.61110     0.32561
    13.80000    92.35227   349.39242     0.32563    87.64773    10.60758     0.32563
    13.90000    92.35143   349.39595     0.32565    87.64857    10.60405     0.32565
    14.00000    92.35059   349.39947     0.32567    87.64941    10.60053     0.32567
    14.10000    92.34975   349.40299     0.32569    87.65025    10.59701     0.32569
    14.20000    92.34890   349.40651     0.32571    87.65110    10.59349     0.32571
    14.30000    92.34806   349.41003     0.32573    87.65194    10.58997     0.32573
    14.40000    92.34722   349.41355     0.32575    87.65278    10.58645     0.32575
    14.50000    92.34638   349.41707     0.32577    87.65362    10.58293     0.32577
    14.60000    92.34554   349.42058     0.32579    87.65446    10.57942     0.32579
    14.70000    92.34470   349.42410     0.32581    87.65530    10.57590     0.32581
    14.80000    92.34386   349.42761     0.32583    87.65614    10.57239     0.32583
    14.90000    92.34302   349.43113     0.32585    87.65698    10.56887     0.32585
    15.00000    92.34218   349.43464     0.32587    87.65782    10.56536     0.32587
    15.10000    92.34134   349.43815     0.32589    87.65866    10.56185     0.32589
    15.20000    92.34050   349.44166     0.32591    87.65950    10.55834     0.32591
    15.30000    92.33966   349.44517     0.32593    87.66034    10.55483     0.32593
    15.40000    92.33882   349.44867     0.32595    87.66118    10.55133     0.32595
    15.50000    92.33798   349.45218     0.32597    87.66202    10.54782     0.32597
    15.60000    92.33714   349.45568     0.32599    87.66286    10.54432     0.32599
    15.70000    92.33631   349.45919     0.32601    87.66369    10.54081     0.32601
    15.80000    92.33547   349.46269     0.32603    87.66453    10.53731     0.32603
    15.90000    92.33463   349.46619     0.32605    87.66537    10.53381     0.32605
    16.00000    92.33379   349.46969     0.32607    87.66621    10.53031     0.32607
    16.10000    92.33296   349.47319     0.32609    87.66704    10.52681     0.32609
    16.20000    92.33212   349.47669     0.32611    87.66788    10.52331     0.32611
    16.30000    92.33128   349.48019     0.32613    87.66872    10.51981     0.32613
    16.40000    92.33045   349.48369     0.32615    87.66955    10.51631     0.32615
    16.50000    92.32961   349.48718     0.32617    87.67039    10.51282     0.32617
    16.60000    92.32878   349.49068     0.32619    87.67122    10.50932     0.32619
    16.70000    92.32794   349.49417     0.32620    87.67206    10.50583     0.32620
    16.80000    92.32711   349.49766     0.32622    87.67289    10.50234     0.32622
    16.90000    92.32627   349.50115     0.32624    87.67373    10.49885     0.32624
    17.00000    92.32544   349.50464     0.32626    87.67456    10.49536     0.32626
    17.10000    92.32460   349.50813     0.32628    87.67540    10.49187     0.32628
    17.20000    92.32377   349.51162     0.32630    87.67623    10.48838     0.32630
    17.30000    92.32294   349.51510     0.32632    87.67706    10.48490     0.32632
    17.40000    92.32210   349.51859     0.32634    87.67790    10.48141     0.32634
    17.50000    92.32127   349.52207     0.32636    87.67873    10.47793     0.32636
    17.60000    92.32044   349.52556     0.32638    87.67956    10.47444     0.32638
    17.70000    92.31961   349.52904     0.32640    87.68039    10.47096     0.32640
    17.80000    92.31877   349.53252     0.32642    87.68123    10.46748     0.32642
    17.90000    92.31794   349.53600     0.32644    87.68206    10.46400     0.32644
    18.00000    92.31711   349.53948     0.32646    87.68289    10.46052     0.32646
    18.10000    92.31628   349.54296     0.32648    87.68372    10.45704     0.32648
    18.20000    92.31545   349.54643     0.32650    87.68455    10.45357     0.32650
    18.30000    92.31462   349.54991     0.32652    87.68538    10.45009     0.32652
    18.40000    92.31379   349.55338     0.32654    87.68621    10.44662     0.32654
    18.50000    92.31296   349.55686     0.32656    87.68704    10.44314     0.32656
    18.60000    92.31213   349.56033     0.32658    87.68787    10.43967     0.32658
    18.70000    92.31130   349.56380     0.32660    87.68870    10.43620     0.32660
    18.80000    92.31047   349.56727     0.32662    87.68953    10.43273     0.32662
    18.90000    92.30964   349.57074     0.32664    87.69036    10.42926     0.32664
    19.00000    92.30881   349.57421     0.32666    87.69119    10.42579     0.32666
    19.10000    92.30798   349.57768     0.32668    87.69202    10.42232     0.32668
    19.20000    92.30715   349.58114     0.32670    87.69285    10.41886     0.32670
    19.30000    92.30632   349.58461     0.32672    87.69368    10.41539     0.32672
    19.40000    92.30550   349.58807     0.32674    87.69450    10.41193     0.32674
    19.50000    92.30467   349.59153     0.32676    87.69533    10.40847     0.32676
    19.60000    92.30384   349.59499     0.32678    87.69616    10.40501     0.32678
    19.70000    92.30302   349.59845     0.32680    87.69698    10.40155     0.32680
    19.80000    92.30219   349.60191     0.32682    87.69781    10.39809     0.32682
    19.90000    92.30136   349.60537     0.32684    87.69864    10.39463     0.32684
    20.00000    92.30054   349.60883     0.32686    87.69946    10.39117     0.32686
    20.10000    92.29971   349.61228     0.32688    87.70029    10.38772     0.32688
    20.20000    92.29888   349.61574     0.32690    87.70112    10.38426     0.32690
    20.30000    92.29806   349.61919     0.32692    87.70194    10.38081     0.32692
    20.40000    92.29723   349.62265     0.32694    87.70277    10.37735     0.32694
    20.50000    92.29641   349.62610     0.32696    87.70359    10.37390     0.32696
    20.60000    92.29559   349.62955     0.32698    87.70441    10.37045     0.32698
    20.70000    92.29476   349.63300     0.32700    87.70524    10.36700     0.32700
    20.80000    92.29394   349.63645     0.32702    87.70606    10.36355     0.32702
    20.90000    92.29311   349.63989     0.32704    87.70689    10.36011     0.32704
    21.00000    92.29229   349.64334     0.32706    87.70771    10.35666     0.32706
    21.10000    92.29147   349.64679     0.32708    87.70853    10.35321     0.32708
    21.20000    92.29064   349.65023     0.32710    87.70936    10.34977     0.32710
    21.30000    92.28982   349.65367     0.32712    87.71018    10.34633     0.32712
    21.40000    92.28900   349.65712     0.32714    87.71100    10.34288     0.32714
    21.50000    92.28818   349.66056     0.32717    87.71182    10.33944     0.32717
    21.60000    92.28736   349.66400     0.32719    87.71264    10.33600     0.32719
    21.70000    92.28653   349.66744     0.32721    87.71347    10.33256     0.32721
    21.80000    92.28571   349.67087     0.32723    87.71429    10.32913     0.32723
    21.90000    92.28489   349.67431     0.32725    87.71511    10.32569     0.32725
    22.00000    92.28407   349.67775     0.32727    87.71593    10.32225     0.32727
    22.10000    92.28325   349.68118     0.32729    87.71675    10.31882     0.32729
    22.20000    92.28243   349.68461     0.32731    87.71757    10.31539     0.32731
    22.30000    92.28161   349.68805     0.32733    87.71839    10.31195     0.32733
    22.40000    92.28079   349.69148     0.32735    87.71921    10.30852     0.32735
    22.50000    92.27997   349.69491     0.32737    87.72003    10.30509     0.32737
    22.60000    92.27915   349.69834     0.32739    87.72085    10.30166     0.32739
    22.70000    92.27833   349.70176     0.32741    87.72167    10.29824     0.32741
    22.80000    92.27751   349.70519     0.32743    87.72249    10.29481     0.32743
    22.90000    92.27670   349.70862     0.32745    87.72330    10.29138     0.32745
    23.00000    92.27588   349.71204     0.32747    87.72412    10.28796     0.32747
    23.10000    92.27506   349.71547     0.32749    87.72494    10.28453     0.32749
    23.20000    92.27424   349.71889     0.32751    87.72576    10.28111     0.32751
    23.30000    92.27343   349.72231     0.32753    87.72657    10.27769     0.32753
    23.40000    92.27261   349.72573     0.32755    87.72739    10.27427     0.32755
    23.50000    92.27179   349.72915     0.32757    87.72821    10.27085     0.32757
    23.60000    92.27098   349.73257     0.32759    87.72902    10.26743     0.32759
    23.70000    92.27016   349.73599     0.32761    87.72984    10.26401     0.32761
    23.80000    92.26934   349.73940     0.32763    87.73066    10.26060     0.32763
    23.90000    92.26853   349.74282     0.32765    87.73147    10.25718     0.32765
    24.00000    92.26771   349.74623     0.32767    87.73229    10.25377     0.32767
    24.10000    92.26690   349.74965     0.32769    87.73310    10.25035     0.32769
    24.20000    92.26608   349.75306     0.32771    87.73392    10.24694     0.32771
    24.30000    92.26527   349.75647     0.32773    87.73473    10.24353     0.32773
    24.40000    92.26445   349.75988     0.32775    87.73555    10.24012     0.32775
    24.50000    92.26364   349.76329     0.32777    87.73636    10.23671     0.32777
    24.60000    92.26283   349.76670     0.32779    87.73717    10.23330     0.32779
    24.70000    92.26201   349.77010     0.32781    87.73799    10.22990     0.32781
    24.80000    92.26120   349.77351     0.32783    87.73880    10.22649     0.32783
    24.90000    92.26039   349.77691     0.32785    87.73961    10.22309     0.32785
    25.00000    92.25957   349.78032     0.32787    87.74043    10.21968     0.32787
    25.10000    92.25876   349.78372     0.32789    87.74124    10.21628     0.32789
    25.20000    92.25795   349.78712     0.32791    87.74205    10.21288     0.32791
    25.30000    92.25714   349.79052     0.32793    87.74286    10.20948     0.32793
    25.40000    92.25633   349.79392     0.32795    87.74367    10.20608     0.32795
    25.50000    92.25551   349.79732     0.32797    87.74449    10.20268     0.32797
    25.60000    92.25470   349.80072     0.32799    87.74530    10.19928     0.32799
    25.70000    92.25389   349.80411     0.32801    87.74611    10.19589     0.32801
    25.80000    92.25308   349.80751     0.32803    87.74692    10.19249     0.32803
    25.90000    92.25227   349.81090     0.32805    87.74773    10.18910     0.32805
    26.00000    92.25146   349.81430     0.32807    87.74854    10.18570     0.32807
    26.10000    92.25065   349.81769     0.32809    87.74935    10.18231     0.32809
    26.20000    92.24984   349.82108     0.32811    87.75016    10.17892     0.32811
    26.30000    92.24903   349.82447     0.32814    87.75097    10.17553     0.32814
    26.40000    92.24822   349.82786     0.32816    87.75178    10.17214     0.32816
    26.50000    92.24742   349.83125     0.32818    87.75258    10.16875     0.32818
    26.60000    92.24661   349.83463     0.32820    87.75339    10.16537     0.32820
    26.70000    92.24580   349.83802     0.32822    87.75420    10.16198     0.32822
    26.80000    92.24499   349.84140     0.32824    87.75501    10.15860     0.32824
    26.90000    92.24418   349.84479     0.32826    87.75582    10.15521     0.32826
    27.00000    92.24338   349.84817     0.32828    87.75662    10.15183     0.32828
    27.10000    92.24257   349.85155     0.32830    87.75743    10.14845     0.32830
    27.20000    92.24176   349.85493     0.32832    87.75824    10.14507     0.32832
    27.30000    92.24096   349.85831     0.32834    87.75904    10.14169     0.32834
    27.40000    92.24015   349.86169     0.32836    87.75985    10.13831     0.32836
    27.50000    92.23934   349.86507     0.32838    87.76066    10.13493     0.32838
    27.60000    92.23854   349.86844     0.32840    87.76146    10.13156     0.32840
    27.70000    92.23773   349.87182     0.32842    87.76227    10.12818     0.32842
    27.80000    92.23693   349.87519     0.32844    87.76307    10.12481     0.32844
    27.90000    92.23612   349.87856     0.32846    87.76388    10.12144     0.32846
    28.00000    92.23532   349.88194     0.32848    87.76468    10.11806     0.32848
    28.10000    92.23451   349.88531     0.32850    87.76549    10.11469     0.32850
    28.20000    92.23371   349.88868     0.32852    87.76629    10.11132     0.32852
    28.30000    92.23290   349.89205     0.32854    87.76710    10.10795     0.32854
    28.40000    92.23210   349.89541     0.32856    87.76790    10.10459     0.32856
    28.50000    92.23130   349.89878     0.32858    87.76870    10.10122     0.32858
    28.60000    92.23049   349.90215     0.32860    87.76951    10.09785     0.32860
    28.70000    92.22969   349.90551     0.32862    87.77031    10.09449     0.32862
    28.80000    92.22889   349.90888     0.32864    87.77111    10.09112     0.32864
    28.90000    92.22808   349.91224     0.32866    87.77192    10.08776     0.32866
    29.00000    92.22728   349.91560     0.32869    87.77272    10.08440     0.32869
    29.10000    92.22648   349.91896     0.32871    87.77352    10.08104     0.32871
    29.20000    92.22568   349.92232     0.32873    87.77432    10.07768     0.32873
    29.30000    92.22488   349.92568     0.32875    87.77512    10.07432     0.32875
    29.40000    92.22408   349.92904     0.32877    87.77592    10.07096     0.32877
    29.50000    92.22328   349.93239     0.32879    87.77672    10.06761     0.32879
    29.60000    92.22248   349.93575     0.32881    87.77752    10.06425     0.32881
    29.70000    92.22167   349.93910     0.32883    87.77833    10.06090     0.32883
    29.80000    92.22087   349.94246     0.32885    87.77913    10.05754     0.32885
    29.90000    92.22007   349.94581     0.32887    87.77993    10.05419     0.32887
    30.00000    92.21928   349.94916     0.32889    87.78072    10.05084     0.32889
    30.10000    92.21848   349.95251     0.32891    87.78152    10.04749     0.32891
    30.20000    92.21768   349.95586     0.32893    87.78232    10.04414     0.32893
    30.30000    92.21688   349.95921     0.32895    87.78312    10.04079     0.32895
    30.40000    92.21608   349.96255     0.32897    87.78392    10.03745     0.32897
    30.50000    92.21528   349.96590     0.32899    87.78472    10.03410     0.32899
    30.60000    92.21448   349.96925     0.32901    87.78552    10.03075     0.32901
    30.70000    92.21369   349.97259     0.32903    87.78631    10.02741     0.32903
    30.80000    92.21289   349.97593     0.32905    87.78711    10.02407     0.32905
    30.90000    92.21209   349.97928     0.32907    87.78791    10.02072     0.32907
    31.00000    92.21129   349.98262     0.32909    87.78871    10.01738     0.32909
    31.10000    92.21050   349.98596     0.32911    87.78950    10.01404     0.32911
    31.20000    92.20970   349.98929     0.32914    87.79030    10.01071     0.32914
    31.30000    92.20890   349.99263     0.32916    87.79110    10.00737     0.32916
    31.40000    92.20811   349.99597     0.32918    87.79189    10.00403     0.32918
    31.50000    92.20731   349.99931     0.32920    87.79269    10.00069     0.32920
    31.60000    92.20652   350.00264     0.32922    87.79348     9.99736     0.32922
    31.70000    92.20572   350.00597     0.32924    87.79428     9.99403     0.32924
    31.80000    92.20493   350.00931     0.32926    87.79507     9.99069     0.32926
    31.90000    92.20413   350.01264     0.32928    87.79587     9.98736     0.32928
    32.00000    92.20334   350.01597     0.32930    87.79666     9.98403     0.32930
    32.10000    92.20254   350.01930     0.32932    87.79746     9.98070     0.32932
    32.20000    92.20175   350.02263     0.32934    87.79825     9.97737     0.32934
    32.30000    92.20096   350.02595     0.32936    87.79904     9.97405     0.32936
    32.40000    92.20016   350.02928     0.32938    87.79984     9.97072     0.32938
    32.50000    92.19937   350.03261     0.32940    87.80063     9.96739     0.32940
    32.60000    92.19858   350.03593     0.32942    87.80142     9.96407     0.32942
    32.70000    92.19779   350.03925     0.32944    87.80221     9.96075     0.32944
    32.80000    92.19699   350.04258     0.32946    87.80301     9.95742     0.32946
    32.90000    92.19620   350.04590     0.32948    87.80380     9.95410     0.32948
    33.00000    92.19541   350.04922     0.32951    87.80459     9.95078     0.32951
    33.10000    92.19462   350.05254     0.32953    87.80538     9.94746     0.32953
    33.20000    92.19383   350.05586     0.32955    87.80617     9.94414     0.32955
    33.30000    92.19303   350.05917     0.32957    87.80697     9.94083     0.32957
    33.40000    92.19224   350.06249     0.32959    87.80776     9.93751     0.32959
    33.50000    92.19145   350.06581     0.32961    87.80855     9.93419     0.32961
    33.60000    92.19066   350.06912     0.32963    87.80934     9.93088     0.32963
    33.70000    92.18987   350.07243     0.32965    87.81013     9.92757     0.32965
    33.80000    92.18908   350.07575     0.32967    87.81092     9.92425     0.32967
    33.90000    92.18829   350.07906     0.32969    87.81171     9.92094     0.32969
    34.00000    92.18750   350.08237     0.32971    87.81250     9.91763     0.32971
    34.10000    92.18672   350.08568     0.32973    87.81328     9.91432     0.32973
    34.20000    92.18593   350.08898     0.32975    87.81407     9.91102     0.32975
    34.30000    92.18514   350.09229     0.32977    87.81486     9.90771     0.32977
    34.40000    92.18435   350.09560     0.32979    87.81565     9.90440     0.32979
    34.50000    92.18356   350.09890     0.32981    87.81644     9.90110     0.32981
    34.60000    92.18277   350.10221     0.32984    87.81723     9.89779     0.32984
    34.70000    92.18199   350.10551     0.32986    87.81801     9.89449     0.32986
    34.80000    92.18120   350.10881     0.32988    87.81880     9.89119     0.32988
    34.90000    92.18041   350.11211     0.32990    87.81959     9.88789     0.32990
    35.00000    92.17963   350.11541     0.32992    87.82037     9.88459     0.32992
    35.10000    92.17884   350.11871     0.32994    87.82116     9.88129     0.32994
    35.20000    92.17805   350.12201     0.32996    87.82195     9.87799     0.32996
    35.30000    92.17727   350.12531     0.32998    87.82273     9.87469     0.32998
    35.40000    92.17648   350.12860     0.33000    87.82352     9.87140     0.33000
    35.50000    92.17570   350.13190     0.33002    87.82430     9.86810     0.33002
    35.60000    92.17491   350.13519     0.33004    87.82509     9.86481     0.33004
    35.70000    92.17413   350.13848     0.33006    87.82587     9.86152     0.33006
    35.80000    92.17334   350.14178     0.33008    87.82666     9.85822     0.33008
    35.90000    92.17256   350.14507     0.33010    87.82744     9.85493     0.33010
    36.00000    92.17177   350.14836     0.33013    87.82823     9.85164     0.33013
    36.10000    92.17099   350.15165     0.33015    87.82901     9.84835     0.33015
    36.20000    92.17021   350.15493     0.33017    87.82979     9.84507     0.33017
    36.30000    92.16942   350.15822     0.33019    87.83058     9.84178     0.33019
    36.40000    92.16864   350.16151     0.33021    87.83136     9.83849     0.33021
    36.50000    92.16786   350.16479     0.33023    87.83214     9.83521     0.33023
    36.60000    92.16707   350.16808     0.33025    87.83293     9.83192     0.33025
    36.70000    92.16629   350.17136     0.33027    87.83371     9.82864     0.33027
    36.80000    92.16551   350.17464     0.33029    87.83449     9.82536     0.33029
    36.90000    92.16473   350.17792     0.33031    87.83527     9.82208     0.33031
    37.00000    92.16395   350.18120     0.33033    87.83605     9.81880     0.33033
    37.10000    92.16316   350.18448     0.33035    87.83684     9.81552     0.33035
    37.20000    92.16238   350.18776     0.33037    87.83762     9.81224     0.33037
    37.30000    92.16160   350.19103     0.33039    87.83840     9.80897     0.33039
    37.40000    92.16082   350.19431     0.33042    87.83918     9.80569     0.33042
    37.50000    92.16004   350.19759     0.33044    87.83996     9.80241     0.33044
    37.60000    92.15926   350.20086     0.33046    87.84074     9.79914     0.33046
    37.70000    92.15848   350.20413     0.33048    87.84152     9.79587     0.33048
    37.80000    92.15770   350.20740     0.33050    87.84230     9.79260     0.33050
    37.90000    92.15692   350.21067     0.33052    87.84308     9.78933     0.33052
    38.00000    92.15614   350.21394     0.33054    87.84386     9.78606     0.33054
    38.10000    92.15536   350.21721     0.33056    87.84464     9.78279     0.33056
    38.20000    92.15459   350.22048     0.33058    87.84541     9.77952     0.33058
    38.30000    92.15381   350.22375     0.33060    87.84619     9.77625     0.33060
    38.40000    92.15303   350.22701     0.33062    87.84697     9.77299     0.33062
    38.50000    92.15225   350.23028     0.33064    87.84775     9.76972     0.33064
    38.60000    92.15147   350.23354     0.33067    87.84853     9.76646     0.33067
    38.70000    92.15070   350.23680     0.33069    87.84930     9.76320     0.33069
    38.80000    92.14992   350.24007     0.33071    87.85008     9.75993     0.33071
    38.90000    92.14914   350.24333     0.33073    87.85086     9.75667     0.33073
    39.00000    92.14837   350.24659     0.33075    87.85163     9.75341     0.33075
    39.10000    92.14759   350.24985     0.33077    87.85241     9.75015     0.33077
    39.20000    92.14681   350.25310     0.33079    87.85319     9.74690     0.33079
    39.30000    92.14604   350.25636     0.33081    87.85396     9.74364     0.33081
    39.40000    92.14526   350.25962     0.33083    87.85474     9.74038     0.33083
    39.50000    92.14449   350.26287     0.33085    87.85551     9.73713     0.33085
    39.60000    92.14371   350.26612     0.33087    87.85629     9.73388     0.33087
    39.70000    92.14294   350.26938     0.33089    87.85706     9.73062     0.33089
    39.80000    92.14216   350.27263     0.33092    87.85784     9.72737     0.33092
    39.90000    92.14139   350.27588     0.33094    87.85861     9.72412     0.33094
    40.00000    92.14061   350.27913     0.33096    87.85939     9.72087     0.33096
