 # applied field (T), theta (degree), phi (degree), abs [muB/unitcell], abs [T]
       0.00000000       0.00000000       0.00000000      53.72773982       1.84874150
       0.10000000       0.39836148     360.00000000      53.72774199       1.84874157
       0.20000000       0.73989981     360.00000000      53.72774761       1.84874176
       0.30000000       1.13826408     360.00000000      53.72775802       1.84874212
       0.40000000       1.53663136     360.00000000      53.72777280       1.84874263
       0.50000000       1.93500269     360.00000000      53.72779195       1.84874329
       0.60000000       2.27655267     360.00000000      53.72781275       1.84874401
       0.70000000       2.67493431     360.00000000      53.72784025       1.84874495
       0.80000000       3.07332301     360.00000000      53.72787219       1.84874605
       0.90000000       3.47171982     360.00000000      53.72790860       1.84874730
       1.00000000       3.81329482     360.00000000      53.72794486       1.84874855
       1.10000000       4.21170944     360.00000000      53.72798981       1.84875010
       1.20000000       4.61013516     360.00000000      53.72803935       1.84875180
       1.30000000       5.00857302     360.00000000      53.72809351       1.84875367
       1.40000000       5.40702407     360.00000000      53.72815233       1.84875569
       1.50000000       5.74864950     360.00000000      53.72820871       1.84875763
       1.60000000       6.14712776     360.00000000      53.72827650       1.84875996
       1.70000000       6.54562218     360.00000000      53.72834911       1.84876246
       1.80000000       6.94413378     360.00000000      53.72842660       1.84876513
       1.90000000       7.34266359     360.00000000      53.72850905       1.84876797
       2.00000000       7.74121265     360.00000000      53.72859650       1.84877097
       2.10000000       8.13978199     360.00000000      53.72868904       1.84877416
       2.20000000       8.53837262     360.00000000      53.72878674       1.84877752
       2.30000000       8.93698558     360.00000000      53.72888966       1.84878106
       2.40000000       9.33562186     360.00000000      53.72899788       1.84878479
       2.50000000       9.73428250     360.00000000      53.72911149       1.84878869
       2.60000000      10.13296849     360.00000000      53.72923055       1.84879279
       2.70000000      10.53168084     360.00000000      53.72935515       1.84879708
       2.80000000      10.93042055     360.00000000      53.72948538       1.84880156
       2.90000000      11.32918862     360.00000000      53.72962130       1.84880624
       3.00000000      11.78487537     360.00000000      53.72977936       1.84881168
       3.10000000      12.18370758     360.00000000      53.72992765       1.84881678
       3.20000000      12.58257123     360.00000000      53.73008190       1.84882209
       3.30000000      13.03837113     360.00000000      53.73026081       1.84882824
       3.40000000      13.43730549     360.00000000      53.73042800       1.84883400
       3.50000000      13.83627431     360.00000000      53.73060142       1.84883996
       3.60000000      14.29219827     360.00000000      53.73080213       1.84884687
       3.70000000      14.69124422     360.00000000      53.73098904       1.84885330
       3.80000000      15.14725890     360.00000000      53.73120511       1.84886074
       3.90000000      15.60332398     360.00000000      53.73142947       1.84886846
       4.00000000      16.00249647     360.00000000      53.73163771       1.84887562
       4.10000000      16.45865966     360.00000000      53.73187804       1.84888389
       4.20000000      16.91487713     360.00000000      53.73212699       1.84889246
       4.30000000      17.37115018     360.00000000      53.73238465       1.84890132
       4.40000000      17.82748011     360.00000000      53.73265111       1.84891049
       4.50000000      18.28386819     360.00000000      53.73292647       1.84891997
       4.60000000      18.79730318     360.00000000      53.73324123       1.84893080
       4.70000000      19.25381901     360.00000000      53.73353563       1.84894093
       4.80000000      19.71039679     360.00000000      53.73383913       1.84895137
       4.90000000      20.22404994     360.00000000      53.73418547       1.84896329
       5.00000000      20.73778480       0.00000000      53.73454324       1.84897560
       5.10000000      21.19457201     360.00000000      53.73487646       1.84898706
       5.20000000      21.70846538       0.00000000      53.73525602       1.84900012
       5.30000000      22.22244486     360.00000000      53.73564710       1.84901358
       5.40000000      22.79357211     360.00000000      53.73608925       1.84902880
       5.50000000      23.30773811     360.00000000      53.73650448       1.84904308
       5.60000000      23.87907612     360.00000000      53.73697318       1.84905921
       5.70000000      24.45052761       0.00000000      53.73745567       1.84907581
       5.80000000      25.02209415     360.00000000      53.73795181       1.84909289
       5.90000000      25.59377721     360.00000000      53.73846142       1.84911042
       6.00000000      26.22270813     360.00000000      53.73903154       1.84913004
       6.10000000      26.85178362     360.00000000      53.73961718       1.84915019
       6.20000000      27.48100511     360.00000000      53.74021794       1.84917086
       6.30000000      28.16754555     360.00000000      53.74088459       1.84919380
       6.40000000      28.85426294     360.00000000      53.74156786       1.84921731
       6.50000000      29.54115833     360.00000000      53.74226696       1.84924137
       6.60000000      30.34266988     360.00000000      53.74309119       1.84926973
       6.70000000      31.14442618     360.00000000      53.74393405       1.84929873
       6.80000000      31.94642720     360.00000000      53.74479386       1.84932832
       6.90000000      32.86322076     360.00000000      53.74578590       1.84936245
       7.00000000      33.83762810     360.00000000      53.74685411       1.84939921
       7.10000000      90.00000000     360.00000000      53.76575082       1.85004943
       7.20000000      90.00000000     360.00000000      53.76579673       1.85005101
       7.30000000      90.00000000     360.00000000      53.76584264       1.85005259
       7.40000000      90.00000000     360.00000000      53.76588856       1.85005417
       7.50000000      90.00000000     360.00000000      53.76593448       1.85005575
       7.60000000      90.00000000     360.00000000      53.76598041       1.85005733
       7.70000000      90.00000000     360.00000000      53.76602634       1.85005891
       7.80000000      90.00000000     360.00000000      53.76607227       1.85006049
       7.90000000      90.00000000     360.00000000      53.76611821       1.85006208
       8.00000000      90.00000000     360.00000000      53.76616415       1.85006366
       8.10000000      90.00000000     360.00000000      53.76621010       1.85006524
       8.20000000      90.00000000     360.00000000      53.76625605       1.85006682
       8.30000000      90.00000000     360.00000000      53.76630201       1.85006840
       8.40000000      90.00000000     360.00000000      53.76634797       1.85006998
       8.50000000      90.00000000     360.00000000      53.76639394       1.85007156
       8.60000000      90.00000000     360.00000000      53.76643991       1.85007314
       8.70000000      90.00000000     360.00000000      53.76648588       1.85007473
       8.80000000      90.00000000     360.00000000      53.76653186       1.85007631
       8.90000000      90.00000000     360.00000000      53.76657785       1.85007789
       9.00000000      90.00000000     360.00000000      53.76662383       1.85007947
       9.10000000      90.00000000     360.00000000      53.76666983       1.85008106
       9.20000000      90.00000000     360.00000000      53.76671582       1.85008264
       9.30000000      90.00000000     360.00000000      53.76676182       1.85008422
       9.40000000      90.00000000     360.00000000      53.76680783       1.85008580
       9.50000000      90.00000000     360.00000000      53.76685384       1.85008739
       9.60000000      90.00000000     360.00000000      53.76689986       1.85008897
       9.70000000      90.00000000     360.00000000      53.76694587       1.85009055
       9.80000000      90.00000000     360.00000000      53.76699190       1.85009214
       9.90000000      90.00000000     360.00000000      53.76703793       1.85009372
      10.00000000      90.00000000     360.00000000      53.76708396       1.85009531
      10.10000000      90.00000000     360.00000000      53.76713000       1.85009689
      10.20000000      90.00000000     360.00000000      53.76717604       1.85009847
      10.30000000      90.00000000     360.00000000      53.76722208       1.85010006
      10.40000000      90.00000000     360.00000000      53.76726813       1.85010164
      10.50000000      90.00000000     360.00000000      53.76731419       1.85010323
      10.60000000      90.00000000     360.00000000      53.76736025       1.85010481
      10.70000000      90.00000000     360.00000000      53.76740631       1.85010640
      10.80000000      90.00000000     360.00000000      53.76745238       1.85010798
      10.90000000      90.00000000     360.00000000      53.76749845       1.85010957
      11.00000000      90.00000000     360.00000000      53.76754453       1.85011115
      11.10000000      90.00000000     360.00000000      53.76759061       1.85011274
      11.20000000      90.00000000     360.00000000      53.76763670       1.85011433
      11.30000000      90.00000000     360.00000000      53.76768279       1.85011591
      11.40000000      90.00000000     360.00000000      53.76772888       1.85011750
      11.50000000      90.00000000     360.00000000      53.76777498       1.85011908
      11.60000000      90.00000000     360.00000000      53.76782108       1.85012067
      11.70000000      90.00000000     360.00000000      53.76786719       1.85012226
      11.80000000      90.00000000     360.00000000      53.76791330       1.85012384
      11.90000000      90.00000000     360.00000000      53.76795942       1.85012543
      12.00000000      90.00000000     360.00000000      53.76800554       1.85012702
      12.10000000      90.00000000     360.00000000      53.76805167       1.85012860
      12.20000000      90.00000000     360.00000000      53.76809780       1.85013019
      12.30000000      90.00000000     360.00000000      53.76814394       1.85013178
      12.40000000      90.00000000     360.00000000      53.76819008       1.85013337
      12.50000000      90.00000000     360.00000000      53.76823622       1.85013495
      12.60000000      90.00000000     360.00000000      53.76828237       1.85013654
      12.70000000      90.00000000     360.00000000      53.76832852       1.85013813
      12.80000000      90.00000000     360.00000000      53.76837468       1.85013972
      12.90000000      90.00000000     360.00000000      53.76842084       1.85014131
      13.00000000      90.00000000     360.00000000      53.76846701       1.85014290
      13.10000000      90.00000000     360.00000000      53.76851318       1.85014448
      13.20000000      90.00000000     360.00000000      53.76855936       1.85014607
      13.30000000      90.00000000     360.00000000      53.76860554       1.85014766
      13.40000000      90.00000000     360.00000000      53.76865172       1.85014925
      13.50000000      90.00000000     360.00000000      53.76869791       1.85015084
      13.60000000      90.00000000     360.00000000      53.76874410       1.85015243
      13.70000000      90.00000000     360.00000000      53.76879030       1.85015402
      13.80000000      90.00000000     360.00000000      53.76883650       1.85015561
      13.90000000      90.00000000     360.00000000      53.76888271       1.85015720
      14.00000000      90.00000000     360.00000000      53.76892892       1.85015879
      14.10000000      90.00000000     360.00000000      53.76897514       1.85016038
      14.20000000      90.00000000     360.00000000      53.76902136       1.85016197
      14.30000000      90.00000000     360.00000000      53.76906759       1.85016356
      14.40000000      90.00000000     360.00000000      53.76911382       1.85016515
      14.50000000      90.00000000     360.00000000      53.76916005       1.85016674
      14.60000000      90.00000000     360.00000000      53.76920629       1.85016833
      14.70000000      90.00000000     360.00000000      53.76925253       1.85016993
      14.80000000      90.00000000     360.00000000      53.76929878       1.85017152
      14.90000000      90.00000000     360.00000000      53.76934503       1.85017311
      15.00000000      90.00000000     360.00000000      53.76939129       1.85017470
      15.10000000      90.00000000     360.00000000      53.76943755       1.85017629
      15.20000000      90.00000000     360.00000000      53.76948382       1.85017788
      15.30000000      90.00000000     360.00000000      53.76953009       1.85017948
      15.40000000      90.00000000     360.00000000      53.76957636       1.85018107
      15.50000000      90.00000000     360.00000000      53.76962264       1.85018266
      15.60000000      90.00000000     360.00000000      53.76966893       1.85018425
      15.70000000      90.00000000     360.00000000      53.76971522       1.85018585
      15.80000000      90.00000000     360.00000000      53.76976151       1.85018744
      15.90000000      90.00000000     360.00000000      53.76980781       1.85018903
      16.00000000      90.00000000     360.00000000      53.76985411       1.85019063
      16.10000000      90.00000000     360.00000000      53.76990042       1.85019222
      16.20000000      90.00000000     360.00000000      53.76994673       1.85019381
      16.30000000      90.00000000     360.00000000      53.76999304       1.85019541
      16.40000000      90.00000000     360.00000000      53.77003937       1.85019700
      16.50000000      90.00000000     360.00000000      53.77008569       1.85019859
      16.60000000      90.00000000     360.00000000      53.77013202       1.85020019
      16.70000000      90.00000000     360.00000000      53.77017835       1.85020178
      16.80000000      90.00000000     360.00000000      53.77022469       1.85020338
      16.90000000      90.00000000     360.00000000      53.77027104       1.85020497
      17.00000000      90.00000000     360.00000000      53.77031738       1.85020657
      17.10000000      90.00000000     360.00000000      53.77036374       1.85020816
      17.20000000      90.00000000     360.00000000      53.77041009       1.85020976
      17.30000000      90.00000000     360.00000000      53.77045646       1.85021135
      17.40000000      90.00000000     360.00000000      53.77050282       1.85021295
      17.50000000      90.00000000     360.00000000      53.77054919       1.85021454
      17.60000000      90.00000000     360.00000000      53.77059557       1.85021614
      17.70000000      90.00000000     360.00000000      53.77064195       1.85021773
      17.80000000      90.00000000     360.00000000      53.77068833       1.85021933
      17.90000000      90.00000000     360.00000000      53.77073472       1.85022093
      18.00000000      90.00000000     360.00000000      53.77078112       1.85022252
      18.10000000      90.00000000     360.00000000      53.77082751       1.85022412
      18.20000000      90.00000000     360.00000000      53.77087392       1.85022572
      18.30000000      90.00000000     360.00000000      53.77092032       1.85022731
      18.40000000      90.00000000     360.00000000      53.77096674       1.85022891
      18.50000000      90.00000000     360.00000000      53.77101315       1.85023051
      18.60000000      90.00000000     360.00000000      53.77105957       1.85023210
      18.70000000      90.00000000     360.00000000      53.77110600       1.85023370
      18.80000000      90.00000000     360.00000000      53.77115243       1.85023530
      18.90000000      90.00000000     360.00000000      53.77119886       1.85023690
      19.00000000      90.00000000     360.00000000      53.77124530       1.85023850
      19.10000000      90.00000000     360.00000000      53.77129175       1.85024009
      19.20000000      90.00000000     360.00000000      53.77133820       1.85024169
      19.30000000      90.00000000     360.00000000      53.77138465       1.85024329
      19.40000000      90.00000000     360.00000000      53.77143111       1.85024489
      19.50000000      90.00000000     360.00000000      53.77147757       1.85024649
      19.60000000      90.00000000     360.00000000      53.77152404       1.85024809
      19.70000000      90.00000000     360.00000000      53.77157051       1.85024969
      19.80000000      90.00000000     360.00000000      53.77161698       1.85025129
      19.90000000      90.00000000     360.00000000      53.77166347       1.85025288
      20.00000000      90.00000000     360.00000000      53.77170995       1.85025448
      20.10000000      90.00000000     360.00000000      53.77175644       1.85025608
      20.20000000      90.00000000     360.00000000      53.77180294       1.85025768
      20.30000000      90.00000000     360.00000000      53.77184944       1.85025928
      20.40000000      90.00000000     360.00000000      53.77189594       1.85026088
      20.50000000      90.00000000     360.00000000      53.77194245       1.85026248
      20.60000000      90.00000000     360.00000000      53.77198896       1.85026408
      20.70000000      90.00000000     360.00000000      53.77203548       1.85026569
      20.80000000      90.00000000     360.00000000      53.77208200       1.85026729
      20.90000000      90.00000000     360.00000000      53.77212853       1.85026889
      21.00000000      90.00000000     360.00000000      53.77217506       1.85027049
      21.10000000      90.00000000     360.00000000      53.77222160       1.85027209
      21.20000000      90.00000000     360.00000000      53.77226814       1.85027369
      21.30000000      90.00000000     360.00000000      53.77231468       1.85027529
      21.40000000      90.00000000     360.00000000      53.77236123       1.85027689
      21.50000000      90.00000000     360.00000000      53.77240779       1.85027850
      21.60000000      90.00000000     360.00000000      53.77245435       1.85028010
      21.70000000      90.00000000     360.00000000      53.77250091       1.85028170
      21.80000000      90.00000000     360.00000000      53.77254748       1.85028330
      21.90000000      90.00000000     360.00000000      53.77259405       1.85028491
      22.00000000      90.00000000     360.00000000      53.77264063       1.85028651
      22.10000000      90.00000000     360.00000000      53.77268721       1.85028811
      22.20000000      90.00000000     360.00000000      53.77273380       1.85028971
      22.30000000      90.00000000     360.00000000      53.77278039       1.85029132
      22.40000000      90.00000000     360.00000000      53.77282699       1.85029292
      22.50000000      90.00000000     360.00000000      53.77287359       1.85029452
      22.60000000      90.00000000     360.00000000      53.77292020       1.85029613
      22.70000000      90.00000000     360.00000000      53.77296681       1.85029773
      22.80000000      90.00000000     360.00000000      53.77301342       1.85029934
      22.90000000      90.00000000     360.00000000      53.77306004       1.85030094
      23.00000000      90.00000000     360.00000000      53.77310667       1.85030254
      23.10000000      90.00000000     360.00000000      53.77315330       1.85030415
      23.20000000      90.00000000     360.00000000      53.77319993       1.85030575
      23.30000000      90.00000000     360.00000000      53.77324657       1.85030736
      23.40000000      90.00000000     360.00000000      53.77329321       1.85030896
      23.50000000      90.00000000     360.00000000      53.77333986       1.85031057
      23.60000000      90.00000000     360.00000000      53.77338651       1.85031217
      23.70000000      90.00000000     360.00000000      53.77343317       1.85031378
      23.80000000      90.00000000     360.00000000      53.77347983       1.85031538
      23.90000000      90.00000000     360.00000000      53.77352650       1.85031699
      24.00000000      90.00000000     360.00000000      53.77357317       1.85031860
      24.10000000      90.00000000     360.00000000      53.77361984       1.85032020
      24.20000000      90.00000000     360.00000000      53.77366652       1.85032181
      24.30000000      90.00000000     360.00000000      53.77371321       1.85032342
      24.40000000      90.00000000     360.00000000      53.77375990       1.85032502
      24.50000000      90.00000000     360.00000000      53.77380659       1.85032663
      24.60000000      90.00000000     360.00000000      53.77385329       1.85032824
      24.70000000      90.00000000     360.00000000      53.77389999       1.85032984
      24.80000000      90.00000000     360.00000000      53.77394670       1.85033145
      24.90000000      90.00000000     360.00000000      53.77399342       1.85033306
      25.00000000      90.00000000     360.00000000      53.77404013       1.85033466
      25.10000000      90.00000000     360.00000000      53.77408686       1.85033627
      25.20000000      90.00000000     360.00000000      53.77413358       1.85033788
      25.30000000      90.00000000     360.00000000      53.77418032       1.85033949
      25.40000000      90.00000000     360.00000000      53.77422705       1.85034110
      25.50000000      90.00000000     360.00000000      53.77427379       1.85034270
      25.60000000      90.00000000     360.00000000      53.77432054       1.85034431
      25.70000000      90.00000000     360.00000000      53.77436729       1.85034592
      25.80000000      90.00000000     360.00000000      53.77441404       1.85034753
      25.90000000      90.00000000     360.00000000      53.77446080       1.85034914
      26.00000000      90.00000000     360.00000000      53.77450757       1.85035075
      26.10000000      90.00000000     360.00000000      53.77455434       1.85035236
      26.20000000      90.00000000     360.00000000      53.77460111       1.85035397
      26.30000000      90.00000000     360.00000000      53.77464789       1.85035558
      26.40000000      90.00000000     360.00000000      53.77469468       1.85035719
      26.50000000      90.00000000     360.00000000      53.77474146       1.85035880
      26.60000000      90.00000000     360.00000000      53.77478826       1.85036041
      26.70000000      90.00000000     360.00000000      53.77483505       1.85036202
      26.80000000      90.00000000     360.00000000      53.77488186       1.85036363
      26.90000000      90.00000000     360.00000000      53.77492866       1.85036524
      27.00000000      90.00000000     360.00000000      53.77497548       1.85036685
      27.10000000      90.00000000     360.00000000      53.77502229       1.85036846
      27.20000000      90.00000000     360.00000000      53.77506911       1.85037007
      27.30000000      90.00000000     360.00000000      53.77511594       1.85037168
      27.40000000      90.00000000     360.00000000      53.77516277       1.85037329
      27.50000000      90.00000000     360.00000000      53.77520961       1.85037491
      27.60000000      90.00000000     360.00000000      53.77525645       1.85037652
      27.70000000      90.00000000     360.00000000      53.77530329       1.85037813
      27.80000000      90.00000000     360.00000000      53.77535014       1.85037974
      27.90000000      90.00000000     360.00000000      53.77539699       1.85038135
      28.00000000      90.00000000     360.00000000      53.77544385       1.85038297
      28.10000000      90.00000000     360.00000000      53.77549072       1.85038458
      28.20000000      90.00000000     360.00000000      53.77553759       1.85038619
      28.30000000      90.00000000     360.00000000      53.77558446       1.85038780
      28.40000000      90.00000000     360.00000000      53.77563134       1.85038942
      28.50000000      90.00000000     360.00000000      53.77567822       1.85039103
      28.60000000      90.00000000     360.00000000      53.77572511       1.85039264
      28.70000000      90.00000000     360.00000000      53.77577200       1.85039426
      28.80000000      90.00000000     360.00000000      53.77581890       1.85039587
      28.90000000      90.00000000     360.00000000      53.77586580       1.85039748
      29.00000000      90.00000000     360.00000000      53.77591270       1.85039910
      29.10000000      90.00000000     360.00000000      53.77595961       1.85040071
      29.20000000      90.00000000     360.00000000      53.77600653       1.85040233
      29.30000000      90.00000000     360.00000000      53.77605345       1.85040394
      29.40000000      90.00000000     360.00000000      53.77610038       1.85040556
      29.50000000      90.00000000     360.00000000      53.77614731       1.85040717
      29.60000000      90.00000000     360.00000000      53.77619424       1.85040879
      29.70000000      90.00000000     360.00000000      53.77624118       1.85041040
      29.80000000      90.00000000     360.00000000      53.77628813       1.85041202
      29.90000000      90.00000000     360.00000000      53.77633507       1.85041363
      30.00000000      90.00000000     360.00000000      53.77638203       1.85041525
      30.10000000      90.00000000     360.00000000      53.77642899       1.85041686
      30.20000000      90.00000000     360.00000000      53.77647595       1.85041848
      30.30000000      90.00000000     360.00000000      53.77652292       1.85042010
      30.40000000      90.00000000     360.00000000      53.77656989       1.85042171
      30.50000000      90.00000000     360.00000000      53.77661687       1.85042333
      30.60000000      90.00000000     360.00000000      53.77666385       1.85042495
      30.70000000      90.00000000     360.00000000      53.77671084       1.85042656
      30.80000000      90.00000000     360.00000000      53.77675783       1.85042818
      30.90000000      90.00000000     360.00000000      53.77680483       1.85042980
      31.00000000      90.00000000     360.00000000      53.77685183       1.85043141
      31.10000000      90.00000000     360.00000000      53.77689884       1.85043303
      31.20000000      90.00000000     360.00000000      53.77694585       1.85043465
      31.30000000      90.00000000     360.00000000      53.77699286       1.85043627
      31.40000000      90.00000000     360.00000000      53.77703988       1.85043788
      31.50000000      90.00000000     360.00000000      53.77708691       1.85043950
      31.60000000      90.00000000     360.00000000      53.77713394       1.85044112
      31.70000000      90.00000000     360.00000000      53.77718097       1.85044274
      31.80000000      90.00000000     360.00000000      53.77722801       1.85044436
      31.90000000      90.00000000     360.00000000      53.77727506       1.85044598
      32.00000000      90.00000000     360.00000000      53.77732211       1.85044760
      32.10000000      90.00000000     360.00000000      53.77736916       1.85044921
      32.20000000      90.00000000     360.00000000      53.77741622       1.85045083
      32.30000000      90.00000000     360.00000000      53.77746329       1.85045245
      32.40000000      90.00000000     360.00000000      53.77751035       1.85045407
      32.50000000      90.00000000     360.00000000      53.77755743       1.85045569
      32.60000000      90.00000000     360.00000000      53.77760451       1.85045731
      32.70000000      90.00000000     360.00000000      53.77765159       1.85045893
      32.80000000      90.00000000     360.00000000      53.77769868       1.85046055
      32.90000000      90.00000000     360.00000000      53.77774577       1.85046217
      33.00000000      90.00000000     360.00000000      53.77779287       1.85046379
      33.10000000      90.00000000     360.00000000      53.77783997       1.85046541
      33.20000000      90.00000000     360.00000000      53.77788708       1.85046704
      33.30000000      90.00000000     360.00000000      53.77793419       1.85046866
      33.40000000      90.00000000     360.00000000      53.77798130       1.85047028
      33.50000000      90.00000000     360.00000000      53.77802843       1.85047190
      33.60000000      90.00000000     360.00000000      53.77807555       1.85047352
      33.70000000      90.00000000     360.00000000      53.77812268       1.85047514
      33.80000000      90.00000000     360.00000000      53.77816982       1.85047676
      33.90000000      90.00000000     360.00000000      53.77821696       1.85047839
      34.00000000      90.00000000     360.00000000      53.77826410       1.85048001
      34.10000000      90.00000000     360.00000000      53.77831125       1.85048163
      34.20000000      90.00000000     360.00000000      53.77835841       1.85048325
      34.30000000      90.00000000     360.00000000      53.77840557       1.85048488
      34.40000000      90.00000000     360.00000000      53.77845273       1.85048650
      34.50000000      90.00000000     360.00000000      53.77849990       1.85048812
      34.60000000      90.00000000     360.00000000      53.77854708       1.85048975
      34.70000000      90.00000000     360.00000000      53.77859426       1.85049137
      34.80000000      90.00000000     360.00000000      53.77864144       1.85049299
      34.90000000      90.00000000     360.00000000      53.77868863       1.85049462
      35.00000000      90.00000000     360.00000000      53.77873583       1.85049624
      35.10000000      90.00000000     360.00000000      53.77878302       1.85049786
      35.20000000      90.00000000     360.00000000      53.77883023       1.85049949
      35.30000000      90.00000000     360.00000000      53.77887744       1.85050111
      35.40000000      90.00000000     360.00000000      53.77892465       1.85050274
      35.50000000      90.00000000     360.00000000      53.77897187       1.85050436
      35.60000000      90.00000000     360.00000000      53.77901909       1.85050599
      35.70000000      90.00000000     360.00000000      53.77906632       1.85050761
      35.80000000      90.00000000     360.00000000      53.77911355       1.85050924
      35.90000000      90.00000000     360.00000000      53.77916079       1.85051086
      36.00000000      90.00000000     360.00000000      53.77920803       1.85051249
      36.10000000      90.00000000     360.00000000      53.77925528       1.85051411
      36.20000000      90.00000000     360.00000000      53.77930253       1.85051574
      36.30000000      90.00000000     360.00000000      53.77934979       1.85051737
      36.40000000      90.00000000     360.00000000      53.77939705       1.85051899
      36.50000000      90.00000000     360.00000000      53.77944431       1.85052062
      36.60000000      90.00000000     360.00000000      53.77949158       1.85052225
      36.70000000      90.00000000     360.00000000      53.77953886       1.85052387
      36.80000000      90.00000000     360.00000000      53.77958614       1.85052550
      36.90000000      90.00000000     360.00000000      53.77963343       1.85052713
      37.00000000      90.00000000     360.00000000      53.77968072       1.85052875
      37.10000000      90.00000000     360.00000000      53.77972801       1.85053038
      37.20000000      90.00000000     360.00000000      53.77977531       1.85053201
      37.30000000      90.00000000     360.00000000      53.77982262       1.85053364
      37.40000000      90.00000000     360.00000000      53.77986993       1.85053526
      37.50000000      90.00000000     360.00000000      53.77991725       1.85053689
      37.60000000      90.00000000     360.00000000      53.77996457       1.85053852
      37.70000000      90.00000000     360.00000000      53.78001189       1.85054015
      37.80000000      90.00000000     360.00000000      53.78005922       1.85054178
      37.90000000      90.00000000     360.00000000      53.78010655       1.85054341
      38.00000000      90.00000000     360.00000000      53.78015389       1.85054504
      38.10000000      90.00000000     360.00000000      53.78020124       1.85054666
      38.20000000      90.00000000     360.00000000      53.78024859       1.85054829
      38.30000000      90.00000000     360.00000000      53.78029594       1.85054992
      38.40000000      90.00000000     360.00000000      53.78034330       1.85055155
      38.50000000      90.00000000     360.00000000      53.78039067       1.85055318
      38.60000000      90.00000000     360.00000000      53.78043803       1.85055481
      38.70000000      90.00000000     360.00000000      53.78048541       1.85055644
      38.80000000      90.00000000     360.00000000      53.78053279       1.85055807
      38.90000000      90.00000000     360.00000000      53.78058017       1.85055970
      39.00000000      90.00000000     360.00000000      53.78062756       1.85056133
      39.10000000      90.00000000     360.00000000      53.78067495       1.85056296
      39.20000000      90.00000000     360.00000000      53.78072235       1.85056460
      39.30000000      90.00000000     360.00000000      53.78076975       1.85056623
      39.40000000      90.00000000     360.00000000      53.78081716       1.85056786
      39.50000000      90.00000000     360.00000000      53.78086457       1.85056949
      39.60000000      90.00000000     360.00000000      53.78091199       1.85057112
      39.70000000      90.00000000     360.00000000      53.78095941       1.85057275
      39.80000000      90.00000000     360.00000000      53.78100684       1.85057438
      39.90000000      90.00000000     360.00000000      53.78105427       1.85057602
      40.00000000      90.00000000     360.00000000      53.78110171       1.85057765
