 # applied field (T), theta (degree), phi (degree), abs
     0.00000     0.00000     0.00000    42.75042
     0.10000     0.17197     0.00000    42.75042
     0.20000     0.40127     0.00000    42.75042
     0.30000     0.57325     0.00000    42.75042
     0.40000     0.74522     0.00000    42.75042
     0.50000     0.97452     0.00000    42.75042
     0.60000     1.14650     0.00000    42.75042
     0.70000     1.31847     0.00000    42.75042
     0.80000     1.54777     0.00000    42.75042
     0.90000     1.71975     0.00000    42.75042
     1.00000     1.89172     0.00000    42.75042
     1.10000     2.12102     0.00000    42.75042
     1.20000     2.29299     0.00000    42.75042
     1.30000     2.46497     0.00000    42.75042
     1.40000     2.69427     0.00000    42.75042
     1.50000     2.86624     0.00000    42.75042
     1.60000     3.03822     0.00000    42.75042
     1.70000     3.26752     0.00000    42.75042
     1.80000     3.43949     0.00000    42.75042
     1.90000     3.61146     0.00000    42.75042
     2.00000     3.84076     0.00000    42.75042
     2.10000     4.01274     0.00000    42.75042
     2.20000     4.24204     0.00000    42.75042
     2.30000     4.41401     0.00000    42.75042
     2.40000     4.58599     0.00000    42.75042
     2.50000     4.81529     0.00000    42.75042
     2.60000     4.98726     0.00000    42.75042
     2.70000     5.15924     0.00000    42.75042
     2.80000     5.38854     0.00000    42.75042
     2.90000     5.56051     0.00000    42.75042
     3.00000     5.73248     0.00000    42.75042
     3.10000     5.96178     0.00000    42.75042
     3.20000     6.13376     0.00000    42.75042
     3.30000     6.30573     0.00000    42.75042
     3.40000     6.53503     0.00000    42.75042
     3.50000     6.70701     0.00000    42.75042
     3.60000     6.87898     0.00000    42.75042
     3.70000     7.10828     0.00000    42.75042
     3.80000     7.28025     0.00000    42.75042
     3.90000     7.45223     0.00000    42.75042
     4.00000     7.68153     0.00000    42.75042
     4.10000     7.85350     0.00000    42.75042
     4.20000     8.02548     0.00000    42.75042
     4.30000     8.25478     0.00000    42.75042
     4.40000     8.42675     0.00000    42.75042
     4.50000     8.59873     0.00000    42.75042
     4.60000     8.82803     0.00000    42.75042
     4.70000     9.00000     0.00000    42.75042
     4.80000     9.17197     0.00000    42.75042
     4.90000     9.34395     0.00000    42.75042
     5.00000     9.57325     0.00000    42.75042
     5.10000     9.74522     0.00000    42.75042
     5.20000     9.91720     0.00000    42.75042
     5.30000    10.14650     0.00000    42.75042
     5.40000    10.31847     0.00000    42.75042
     5.50000    10.49045     0.00000    42.75042
     5.60000    10.71975     0.00000    42.75042
     5.70000    10.89172     0.00000    42.75042
     5.80000    11.06369     0.00000    42.75042
     5.90000    11.29299     0.00000    42.75042
     6.00000    11.46497     0.00000    42.75042
     6.10000    11.63694     0.00000    42.75042
     6.20000    11.86624     0.00000    42.75042
     6.30000    12.03822     0.00000    42.75042
     6.40000    12.21019     0.00000    42.75042
     6.50000    12.43949     0.00000    42.75042
     6.60000    12.61146     0.00000    42.75042
     6.70000    12.78344     0.00000    42.75042
     6.80000    12.95541     0.00000    42.75042
     6.90000    13.18471     0.00000    42.75042
     7.00000    13.35669     0.00000    42.75042
     7.10000    13.52866     0.00000    42.75042
     7.20000    13.75796     0.00000    42.75042
     7.30000    13.92994     0.00000    42.75042
     7.40000    14.10191     0.00000    42.75042
     7.50000    14.33121     0.00000    42.75042
     7.60000    14.50318     0.00000    42.75042
     7.70000    14.67516     0.00000    42.75042
     7.80000    14.90446     0.00000    42.75042
     7.90000    15.07643     0.00000    42.75042
     8.00000    15.24841     0.00000    42.75042
     8.10000    15.42038     0.00000    42.75042
     8.20000    15.64968     0.00000    42.75042
     8.30000    15.82166     0.00000    42.75042
     8.40000    15.99363     0.00000    42.75042
     8.50000    16.22293     0.00000    42.75042
     8.60000    16.39490     0.00000    42.75042
     8.70000    16.56688     0.00000    42.75042
     8.80000    16.73885     0.00000    42.75042
     8.90000    16.96815     0.00000    42.75042
     9.00000    17.14013     0.00000    42.75042
     9.10000    17.31210     0.00000    42.75042
     9.20000    17.54140     0.00000    42.75042
     9.30000    17.71338     0.00000    42.75042
     9.40000    17.88535     0.00000    42.75042
     9.50000    18.05732     0.00000    42.75042
     9.60000    18.28662     0.00000    42.75042
     9.70000    18.45860     0.00000    42.75042
     9.80000    18.63057     0.00000    42.75042
     9.90000    18.80255     0.00000    42.75042
    10.00000    19.03185     0.00000    42.75042
    10.10000    19.20382     0.00000    42.75042
    10.20000    19.37580     0.00000    42.75042
    10.30000    19.54777     0.00000    42.75042
    10.40000    19.77707     0.00000    42.75042
    10.50000    19.94904     0.00000    42.75042
    10.60000    20.12102     0.00000    42.75042
    10.70000    20.35032     0.00000    42.75042
    10.80000    20.52229     0.00000    42.75042
    10.90000    20.69427     0.00000    42.75042
    11.00000    20.86624     0.00000    42.75042
    11.10000    21.09554     0.00000    42.75042
    11.20000    21.26752     0.00000    42.75042
    11.30000    21.43949     0.00000    42.75042
    11.40000    21.61146     0.00000    42.75042
    11.50000    21.78344     0.00000    42.75042
    11.60000    22.01274     0.00000    42.75042
    11.70000    22.18471     0.00000    42.75042
    11.80000    22.35669     0.00000    42.75042
    11.90000    22.52866     0.00000    42.75042
    12.00000    22.75796     0.00000    42.75042
    12.10000    22.92994     0.00000    42.75042
    12.20000    23.10191     0.00000    42.75042
    12.30000    23.27389     0.00000    42.75042
    12.40000    23.50318     0.00000    42.75042
    12.50000    23.67516     0.00000    42.75042
    12.60000    23.84713     0.00000    42.75042
    12.70000    24.01911     0.00000    42.75042
    12.80000    24.19108     0.00000    42.75042
    12.90000    24.42038     0.00000    42.75042
    13.00000    24.59236     0.00000    42.75042
    13.10000    24.76433     0.00000    42.75042
    13.20000    24.93631     0.00000    42.75042
    13.30000    25.16561     0.00000    42.75042
    13.40000    25.33758     0.00000    42.75042
    13.50000    25.50955     0.00000    42.75042
    13.60000    25.68153     0.00000    42.75042
    13.70000    25.85350     0.00000    42.75042
    13.80000    26.08280     0.00000    42.75042
    13.90000    26.25478     0.00000    42.75042
    14.00000    26.42675     0.00000    42.75042
    14.10000    26.59873     0.00000    42.75042
    14.20000    26.77070     0.00000    42.75042
    14.30000    27.00000     0.00000    42.75042
    14.40000    27.17197     0.00000    42.75042
    14.50000    27.34395     0.00000    42.75042
    14.60000    27.51592     0.00000    42.75042
    14.70000    27.68790     0.00000    42.75042
    14.80000    27.85987     0.00000    42.75042
    14.90000    28.08917     0.00000    42.75042
    15.00000    28.26115     0.00000    42.75042
    15.10000    28.43312     0.00000    42.75042
    15.20000    28.60510     0.00000    42.75042
    15.30000    28.77707     0.00000    42.75042
    15.40000    29.00637     0.00000    42.75042
    15.50000    29.17834     0.00000    42.75042
    15.60000    29.35032     0.00000    42.75042
    15.70000    29.52229     0.00000    42.75042
    15.80000    29.69427     0.00000    42.75042
    15.90000    29.86624     0.00000    42.75042
    16.00000    30.09554     0.00000    42.75042
    16.10000    30.26752     0.00000    42.75042
    16.20000    30.43949     0.00000    42.75042
    16.30000    30.61146     0.00000    42.75042
    16.40000    30.78344     0.00000    42.75042
    16.50000    30.95541     0.00000    42.75042
    16.60000    31.12739     0.00000    42.75042
    16.70000    31.35669     0.00000    42.75042
    16.80000    31.52866     0.00000    42.75042
    16.90000    31.70064     0.00000    42.75042
    17.00000    31.87261     0.00000    42.75042
    17.10000    32.04459     0.00000    42.75042
    17.20000    32.21656     0.00000    42.75042
    17.30000    32.38854     0.00000    42.75042
    17.40000    32.56051     0.00000    42.75042
    17.50000    32.78981     0.00000    42.75042
    17.60000    32.96178     0.00000    42.75042
    17.70000    33.13376     0.00000    42.75042
    17.80000    33.30573     0.00000    42.75042
    17.90000    33.47771     0.00000    42.75042
    18.00000    33.64968     0.00000    42.75042
    18.10000    33.82166     0.00000    42.75042
    18.20000    33.99363     0.00000    42.75042
    18.30000    34.22293     0.00000    42.75042
    18.40000    34.39490     0.00000    42.75042
    18.50000    34.56688     0.00000    42.75042
    18.60000    34.73885     0.00000    42.75042
    18.70000    34.91083     0.00000    42.75042
    18.80000    35.08280     0.00000    42.75042
    18.90000    35.25478     0.00000    42.75042
    19.00000    35.42675     0.00000    42.75042
    19.10000    35.59873     0.00000    42.75042
    19.20000    35.77070     0.00000    42.75042
    19.30000    35.94268     0.00000    42.75042
    19.40000    36.17197     0.00000    42.75042
    19.50000    36.34395     0.00000    42.75042
    19.60000    36.51592     0.00000    42.75042
    19.70000    36.68790     0.00000    42.75042
    19.80000    36.85987     0.00000    42.75042
    19.90000    37.03185     0.00000    42.75042
    20.00000    37.20382     0.00000    42.75042
    20.10000    37.37580     0.00000    42.75042
    20.20000    37.54777     0.00000    42.75042
    20.30000    37.71975     0.00000    42.75042
    20.40000    37.89172     0.00000    42.75042
    20.50000    38.06369     0.00000    42.75042
    20.60000    38.23567     0.00000    42.75042
    20.70000    38.40764     0.00000    42.75042
    20.80000    38.57962     0.00000    42.75042
    20.90000    38.75159     0.00000    42.75042
    21.00000    38.92357     0.00000    42.75042
    21.10000    39.09554     0.00000    42.75042
    21.20000    39.32484     0.00000    42.75042
    21.30000    39.49682     0.00000    42.75042
    21.40000    39.66879     0.00000    42.75042
    21.50000    39.84076     0.00000    42.75042
    21.60000    40.01274     0.00000    42.75042
    21.70000    40.18471     0.00000    42.75042
    21.80000    40.35669     0.00000    42.75042
    21.90000    40.52866     0.00000    42.75042
    22.00000    40.70064     0.00000    42.75042
    22.10000    40.87261     0.00000    42.75042
    22.20000    41.04459     0.00000    42.75042
    22.30000    41.21656     0.00000    42.75042
    22.40000    41.38854     0.00000    42.75042
    22.50000    41.56051     0.00000    42.75042
    22.60000    41.73248     0.00000    42.75042
    22.70000    41.90446     0.00000    42.75042
    22.80000    42.07643     0.00000    42.75042
    22.90000    42.24841     0.00000    42.75042
    23.00000    42.42038     0.00000    42.75042
    23.10000    42.59236     0.00000    42.75042
    23.20000    42.76433     0.00000    42.75042
    23.30000    42.93631     0.00000    42.75042
    23.40000    43.10828     0.00000    42.75042
    23.50000    43.28025     0.00000    42.75042
    23.60000    43.45223     0.00000    42.75042
    23.70000    43.62420     0.00000    42.75042
    23.80000    43.79618     0.00000    42.75042
    23.90000    43.91083     0.00000    42.75042
    24.00000    44.08280     0.00000    42.75042
    24.10000    44.25478     0.00000    42.75042
    24.20000    44.42675     0.00000    42.75042
    24.30000    44.59873     0.00000    42.75042
    24.40000    44.77070     0.00000    42.75042
    24.50000    44.94268     0.00000    42.75042
    24.60000    45.11465     0.00000    42.75042
    24.70000    45.28662     0.00000    42.75042
    24.80000    45.45860     0.00000    42.75042
    24.90000    45.63057     0.00000    42.75042
    25.00000    45.80255     0.00000    42.75042
    25.10000    45.97452     0.00000    42.75042
    25.20000    46.14650     0.00000    42.75042
    25.30000    46.31847     0.00000    42.75042
    25.40000    46.49045     0.00000    42.75042
    25.50000    46.66242     0.00000    42.75042
    25.60000    46.77707     0.00000    42.75042
    25.70000    46.94904     0.00000    42.75042
    25.80000    47.12102     0.00000    42.75042
    25.90000    47.29299     0.00000    42.75042
    26.00000    47.46497     0.00000    42.75042
    26.10000    47.63694     0.00000    42.75042
    26.20000    47.80892     0.00000    42.75042
    26.30000    47.98089     0.00000    42.75042
    26.40000    48.15287     0.00000    42.75042
    26.50000    48.32484     0.00000    42.75042
    26.60000    48.49682     0.00000    42.75042
    26.70000    48.61146     0.00000    42.75042
    26.80000    48.78344     0.00000    42.75042
    26.90000    48.95541     0.00000    42.75042
    27.00000    49.12739     0.00000    42.75042
    27.10000    49.29936     0.00000    42.75042
    27.20000    49.47134     0.00000    42.75042
    27.30000    49.64331     0.00000    42.75042
    27.40000    49.81529     0.00000    42.75042
    27.50000    49.98726     0.00000    42.75042
    27.60000    50.10191     0.00000    42.75042
    27.70000    50.27389     0.00000    42.75042
    27.80000    50.44586     0.00000    42.75042
    27.90000    50.61783     0.00000    42.75042
    28.00000    50.78981     0.00000    42.75042
    28.10000    50.96178     0.00000    42.75042
    28.20000    51.13376     0.00000    42.75042
    28.30000    51.24841     0.00000    42.75042
    28.40000    51.42038     0.00000    42.75042
    28.50000    51.59236     0.00000    42.75042
    28.60000    51.76433     0.00000    42.75042
    28.70000    51.93631     0.00000    42.75042
    28.80000    52.10828     0.00000    42.75042
    28.90000    52.22293     0.00000    42.75042
    29.00000    52.39490     0.00000    42.75042
    29.10000    52.56688     0.00000    42.75042
    29.20000    52.73885     0.00000    42.75042
    29.30000    52.91083     0.00000    42.75042
    29.40000    53.08280     0.00000    42.75042
    29.50000    53.19745     0.00000    42.75042
    29.60000    53.36943     0.00000    42.75042
    29.70000    53.54140     0.00000    42.75042
    29.80000    53.71338     0.00000    42.75042
    29.90000    53.88535     0.00000    42.75042
    30.00000    54.05732     0.00000    42.75042
    30.10000    54.17197     0.00000    42.75042
    30.20000    54.34395     0.00000    42.75042
    30.30000    54.51592     0.00000    42.75042
    30.40000    54.68790     0.00000    42.75042
    30.50000    54.85987     0.00000    42.75042
    30.60000    54.97452     0.00000    42.75042
    30.70000    55.14650     0.00000    42.75042
    30.80000    55.31847     0.00000    42.75042
    30.90000    55.49045     0.00000    42.75042
    31.00000    55.66242     0.00000    42.75042
    31.10000    55.77707     0.00000    42.75042
    31.20000    55.94904     0.00000    42.75042
    31.30000    56.12102     0.00000    42.75042
    31.40000    56.29299     0.00000    42.75042
    31.50000    56.46497     0.00000    42.75042
    31.60000    56.57962     0.00000    42.75042
    31.70000    56.75159     0.00000    42.75042
    31.80000    56.92357     0.00000    42.75042
    31.90000    57.09554     0.00000    42.75042
    32.00000    57.26752     0.00000    42.75042
    32.10000    57.38217     0.00000    42.75042
    32.20000    57.55414     0.00000    42.75042
    32.30000    57.72611     0.00000    42.75042
    32.40000    57.89809     0.00000    42.75042
    32.50000    58.01274     0.00000    42.75042
    32.60000    58.18471     0.00000    42.75042
    32.70000    58.35669     0.00000    42.75042
    32.80000    58.52866     0.00000    42.75042
    32.90000    58.70064     0.00000    42.75042
    33.00000    58.81529     0.00000    42.75042
    33.10000    58.98726     0.00000    42.75042
    33.20000    59.15924     0.00000    42.75042
    33.30000    59.33121     0.00000    42.75042
    33.40000    59.44586     0.00000    42.75042
    33.50000    59.61783     0.00000    42.75042
    33.60000    59.78981     0.00000    42.75042
    33.70000    59.96178     0.00000    42.75042
    33.80000    60.07643     0.00000    42.75042
    33.90000    60.24841     0.00000    42.75042
    34.00000    60.42038     0.00000    42.75042
    34.10000    60.59236     0.00000    42.75042
    34.20000    60.70701     0.00000    42.75042
    34.30000    60.87898     0.00000    42.75042
    34.40000    61.05096     0.00000    42.75042
    34.50000    61.22293     0.00000    42.75042
    34.60000    61.39490     0.00000    42.75042
    34.70000    61.50955     0.00000    42.75042
    34.80000    61.68153     0.00000    42.75042
    34.90000    61.85350     0.00000    42.75042
    35.00000    62.02548     0.00000    42.75042
    35.10000    62.14013     0.00000    42.75042
    35.20000    62.31210     0.00000    42.75042
    35.30000    62.48408     0.00000    42.75042
    35.40000    62.65605     0.00000    42.75042
    35.50000    62.77070     0.00000    42.75042
    35.60000    62.94268     0.00000    42.75042
    35.70000    63.11465     0.00000    42.75042
    35.80000    63.28662     0.00000    42.75042
    35.90000    63.40127     0.00000    42.75042
    36.00000    63.57325     0.00000    42.75042
    36.10000    63.74522     0.00000    42.75042
    36.20000    63.91720     0.00000    42.75042
    36.30000    64.08917     0.00000    42.75042
    36.40000    64.20382     0.00000    42.75042
    36.50000    64.37580     0.00000    42.75042
    36.60000    64.54777     0.00000    42.75042
    36.70000    64.71975     0.00000    42.75042
    36.80000    64.83439     0.00000    42.75042
    36.90000    65.00637     0.00000    42.75042
    37.00000    65.17834     0.00000    42.75042
    37.10000    65.35032     0.00000    42.75042
    37.20000    65.52229     0.00000    42.75042
    37.30000    65.63694     0.00000    42.75042
    37.40000    65.80892     0.00000    42.75042
    37.50000    65.98089     0.00000    42.75042
    37.60000    66.15287     0.00000    42.75042
    37.70000    66.32484     0.00000    42.75042
    37.80000    66.43949     0.00000    42.75042
    37.90000    66.61146     0.00000    42.75042
    38.00000    66.78344     0.00000    42.75042
    38.10000    66.95541     0.00000    42.75042
    38.20000    67.12739     0.00000    42.75042
    38.30000    67.24204     0.00000    42.75042
    38.40000    67.41401     0.00000    42.75042
    38.50000    67.58599     0.00000    42.75042
    38.60000    67.75796     0.00000    42.75042
    38.70000    67.92994     0.00000    42.75042
    38.80000    68.10191     0.00000    42.75042
    38.90000    68.27389     0.00000    42.75042
    39.00000    68.38854     0.00000    42.75042
    39.10000    68.56051     0.00000    42.75042
    39.20000    68.73248     0.00000    42.75042
    39.30000    68.90446     0.00000    42.75042
    39.40000    69.07643     0.00000    42.75042
    39.50000    69.24841     0.00000    42.75042
    39.60000    69.42038     0.00000    42.75042
    39.70000    69.59236     0.00000    42.75042
    39.80000    69.70701     0.00000    42.75042
    39.90000    69.87898     0.00000    42.75042
    40.00000    70.05096     0.00000    42.75042
