 # applied field (T), theta (degree), phi (degree), abs for RE 1-2
     0.00000    90.00000    44.57227     2.95648    90.00000    44.57227     2.95648
     0.10000    89.80151    45.42773     2.95644    89.80151    45.42773     2.95644
     0.20000    89.57493    45.42773     2.95632    89.57493    45.42773     2.95632
     0.30000    89.37640    44.57227     2.95613    89.37640    44.57227     2.95613
     0.40000    89.14975    44.57227     2.95583    89.14975    44.57227     2.95583
     0.50000    88.95112    45.42773     2.95549    88.95112    45.42773     2.95549
     0.60000    88.72433    45.42773     2.95502    88.72433    45.42773     2.95502
     0.70000    88.52556    44.57227     2.95453    88.52556    44.57227     2.95453
     0.80000    88.32670    45.42773     2.95398    88.32670    45.42773     2.95398
     0.90000    88.09959    44.57227     2.95325    88.09959    44.57227     2.95325
     1.00000    87.90050    45.42773     2.95254    87.90050    45.42773     2.95254
     1.10000    87.67309    44.57227     2.95164    87.67309    44.57227     2.95164
     1.20000    87.47372    44.57227     2.95078    87.47372    44.57227     2.95078
     1.30000    87.24596    45.42773     2.94971    87.24596    45.42773     2.94971
     1.40000    87.04625    44.57227     2.94869    87.04625    44.57227     2.94869
     1.50000    86.84636    45.42774     2.94761    86.84636    45.42774     2.94761
     1.60000    86.61796    45.00000     2.94628    86.61796    45.00000     2.94628
     1.70000    86.41765    45.00000     2.94505    86.41765    45.00000     2.94505
     1.80000    86.18874    45.00000     2.94355    86.18874    45.00000     2.94355
     1.90000    85.98795    45.00000     2.94216    85.98795    45.00000     2.94216
     2.00000    85.75845    45.00000     2.94048    85.75845    45.00000     2.94048
     2.10000    85.55712    45.00000     2.93894    85.55712    45.00000     2.93894
     2.20000    85.35552    45.00000     2.93732    85.35552    45.00000     2.93732
     2.30000    85.12506    45.00000     2.93539    85.12506    45.00000     2.93539
     2.40000    84.92283    45.00000     2.93362    84.92283    45.00000     2.93362
     2.50000    84.69162    45.43606     2.93152    84.69162    45.43606     2.93152
     2.60000    84.48871    44.56394     2.92959    84.48871    44.56394     2.92959
     2.70000    84.25668    44.56394     2.92731    84.25668    44.56394     2.92731
     2.80000    84.05302    44.56393     2.92523    84.05302    44.56393     2.92523
     2.90000    83.84900    44.56393     2.92309    83.84900    44.56393     2.92309
     3.00000    83.61564    45.43607     2.92054    83.61564    45.43607     2.92054
     3.10000    83.41078    45.00000     2.91824    83.41078    45.00000     2.91824
     3.20000    83.17643    45.00000     2.91551    83.17643    45.00000     2.91551
     3.30000    82.97067    45.00000     2.91306    82.97067    45.00000     2.91306
     3.40000    82.76446    45.00000     2.91052    82.76446    45.00000     2.91052
     3.50000    82.52852    45.00000     2.90754    82.52852    45.00000     2.90754
     3.60000    82.32131    45.00000     2.90485    82.32131    45.00000     2.90485
     3.70000    82.08418    44.55527     2.90168    82.08418    44.55527     2.90168
     3.80000    81.87590    45.44473     2.89884    81.87590    45.44473     2.89884
     3.90000    81.66710    44.55527     2.89592    81.66710    44.55527     2.89592
     4.00000    81.42810    45.44474     2.89249    81.42810    45.44474     2.89249
     4.10000    81.21813    45.00000     2.88941    81.21813    45.00000     2.88941
     4.20000    81.00759    45.00000     2.88626    81.00759    45.00000     2.88626
     4.30000    80.76653    45.00000     2.88256    80.76653    45.00000     2.88256
     4.40000    80.55471    45.00000     2.87925    80.55471    45.00000     2.87925
     4.50000    80.31214    44.54626     2.87537    80.31214    44.54626     2.87537
     4.60000    80.09896    44.54625     2.87190    80.09896    44.54625     2.87190
     4.70000    79.88512    45.45375     2.86835    79.88512    45.45375     2.86835
     4.80000    79.64019    45.45375     2.86420    79.64019    45.45375     2.86420
     4.90000    79.42488    45.00000     2.86050    79.42488    45.00000     2.86050
     5.00000    79.20885    45.00000     2.85671    79.20885    45.00000     2.85671
     5.10000    78.96135    45.00000     2.85229    78.96135    45.00000     2.85229
     5.20000    78.74374    45.00000     2.84835    78.74374    45.00000     2.84835
     5.30000    78.49437    44.53687     2.84374    78.49437    44.53687     2.84374
     5.40000    78.27507    44.53686     2.83964    78.27507    44.53686     2.83964
     5.50000    78.05496    45.46314     2.83545    78.05496    45.46314     2.83545
     5.60000    77.80267    45.00000     2.83057    77.80267    45.00000     2.83057
     5.70000    77.58075    45.00000     2.82623    77.58075    45.00000     2.82623
     5.80000    77.35795    45.00000     2.82180    77.35795    45.00000     2.82180
     5.90000    77.10251    45.47291     2.81665    77.10251    45.47291     2.81665
     6.00000    76.87777    44.52708     2.81206    76.87777    44.52708     2.81206
     6.10000    76.65208    45.47292     2.80739    76.65208    45.47292     2.80739
     6.20000    76.39327    45.00000     2.80196    76.39327    45.00000     2.80196
     6.30000    76.16549    45.00000     2.79713    76.16549    45.00000     2.79713
     6.40000    75.90422    45.00000     2.79151    75.90422    45.00000     2.79151
     6.50000    75.67425    45.48311     2.78652    75.67425    45.48311     2.78652
     6.60000    75.44322    45.48312     2.78144    75.44322    45.48312     2.78144
     6.70000    75.17814    44.51687     2.77554    75.17814    44.51687     2.77554
     6.80000    74.94476    45.00000     2.77030    74.94476    45.00000     2.77030
     6.90000    74.71024    45.00000     2.76498    74.71024    45.00000     2.76498
     7.00000    74.44109    44.50624     2.75880    74.44109    44.50624     2.75880
     7.10000    74.20405    45.49377     2.75332    74.20405    45.49377     2.75332
     7.20000    73.96580    44.50623     2.74775    73.96580    44.50623     2.74775
     7.30000    73.69228    45.00000     2.74130    73.69228    45.00000     2.74130
     7.40000    73.45134    45.00000     2.73556    73.45134    45.00000     2.73556
     7.50000    73.17467    44.49511     2.72891    73.17467    44.49511     2.72891
     7.60000    72.93090    45.50490     2.72301    72.93090    45.50490     2.72301
     7.70000    72.68578    45.50490     2.71704    72.68578    45.50490     2.71704
     7.80000    72.40423    45.00000     2.71011    72.40423    45.00000     2.71011
     7.90000    72.15610    45.00000     2.70396    72.15610    45.00000     2.70396
     8.00000    71.87103    45.51653     2.69684    71.87103    45.51653     2.69684
     8.10000    71.61975    45.51654     2.69052    71.61975    45.51654     2.69052
     8.20000    71.36695    44.48346     2.68413    71.36695    44.48346     2.68413
     8.30000    71.07644    45.00000     2.67673    71.07644    45.00000     2.67673
     8.40000    70.82028    45.00000     2.67017    70.82028    45.00000     2.67017
     8.50000    70.52583    45.52872     2.66258    70.52583    45.52872     2.66258
     8.60000    70.26617    45.52873     2.65586    70.26617    45.52873     2.65586
     8.70000    69.96763    45.00000     2.64807    69.96763    45.00000     2.64807
     8.80000    69.70430    45.00000     2.64118    69.70430    45.00000     2.64118
     8.90000    69.40147    45.54149     2.63321    69.40147    45.54149     2.63321
     9.00000    69.13431    44.45850     2.62615    69.13431    44.45850     2.62615
     9.10000    68.86530    45.00000     2.61902    68.86530    45.00000     2.61902
     9.20000    68.55585    45.00000     2.61077    68.55585    45.00000     2.61077
     9.30000    68.28276    45.55489     2.60347    68.28276    45.55489     2.60347
     9.40000    67.96855    44.44510     2.59504    67.96855    44.44510     2.59504
     9.50000    67.65172    45.00000     2.58650    67.65172    45.00000     2.58650
     9.60000    67.37202    45.00000     2.57896    67.37202    45.00000     2.57896
     9.70000    67.05009    44.43103     2.57024    67.05009    44.43103     2.57024
     9.80000    66.76585    44.43102     2.56254    66.76585    44.43102     2.56254
     9.90000    66.43862    45.00000     2.55364    66.43862    45.00000     2.55364
    10.00000    66.14963    45.00000     2.54577    66.14963    45.00000     2.54577
    10.10000    65.81685    44.41621     2.53669    65.81685    44.41621     2.53669
    10.20000    65.48102    45.58379     2.52752    65.48102    45.58379     2.52752
    10.30000    65.18436    45.00000     2.51942    65.18436    45.00000     2.51942
    10.40000    64.84262    45.00000     2.51006    64.84262    45.00000     2.51006
    10.50000    64.49763    45.59939     2.50062    64.49763    45.59939     2.50062
    10.60000    64.19277    45.00000     2.49229    64.19277    45.00000     2.49229
    10.70000    63.84148    45.00000     2.48267    63.84148    45.00000     2.48267
    10.80000    63.48670    44.38416     2.47297    63.48670    44.38416     2.47297
    10.90000    63.12839    45.61585     2.46317    63.12839    45.61585     2.46317
    11.00000    62.76645    45.00000     2.45329    62.76645    45.00000     2.45329
    11.10000    62.44644    44.36678     2.44458    62.44644    44.36678     2.44458
    11.20000    62.07747    44.36677     2.43454    62.07747    44.36677     2.43454
    11.30000    61.70464    45.00000     2.42442    61.70464    45.00000     2.42442
    11.40000    61.32786    45.00000     2.41421    61.32786    45.00000     2.41421
    11.50000    60.94703    44.34839     2.40392    60.94703    44.34839     2.40392
    11.60000    60.56209    45.00000     2.39355    60.56209    45.00000     2.39355
    11.70000    60.17292    45.00000     2.38311    60.17292    45.00000     2.38311
    11.80000    59.77943    44.32891     2.37259    59.77943    44.32891     2.37259
    11.90000    59.38155    45.00000     2.36199    59.38155    45.00000     2.36199
    12.00000    58.97917    45.00000     2.35133    58.97917    45.00000     2.35133
    12.10000    58.52125    44.30822     2.33923    58.52125    44.30822     2.33923
    12.20000    58.10898    45.00000     2.32842    58.10898    45.00000     2.32842
    12.30000    57.69190    45.00000     2.31754    57.69190    45.00000     2.31754
    12.40000    57.26990    44.28623     2.30660    57.26990    44.28623     2.30660
    12.50000    56.78943    45.00000     2.29421    56.78943    45.00000     2.29421
    12.60000    56.35666    45.00000     2.28314    56.35666    45.00000     2.28314
    12.70000    55.86377    45.73721     2.27061    55.86377    45.73721     2.27061
    12.80000    55.41973    45.00000     2.25942    55.41973    45.00000     2.25942
    12.90000    54.91389    45.76222     2.24677    54.91389    45.76222     2.24677
    13.00000    54.45807    44.23777     2.23548    54.45807    44.23777     2.23548
    13.10000    53.93872    45.00000     2.22272    53.93872    45.00000     2.22272
    13.20000    53.41195    45.78901     2.20991    53.41195    45.78901     2.20991
    13.30000    52.87763    45.00000     2.19705    52.87763    45.00000     2.19705
    13.40000    52.33557    44.18228     2.18415    52.33557    44.18228     2.18415
    13.50000    51.78561    45.81774     2.17121    51.78561    45.81774     2.17121
    13.60000    51.22758    45.00000     2.15824    51.22758    45.00000     2.15824
    13.70000    50.66130    44.15138     2.14524    50.66130    44.15138     2.14524
    13.80000    50.02246    45.00000     2.13077    50.02246    45.00000     2.13077
    13.90000    49.43820    44.11807     2.11774    49.43820    44.11807     2.11774
    14.00000    48.77895    45.00000     2.10324    48.77895    45.00000     2.10324
    14.10000    48.17593    45.00000     2.09019    48.17593    45.00000     2.09019
    14.20000    47.49538    44.08203     2.07569    47.49538    44.08203     2.07569
    14.30000    46.80329    45.00000     2.06121    46.80329    45.00000     2.06121
    14.40000    46.09939    45.95707     2.04675    46.09939    45.95707     2.04675
    14.50000    45.38348    45.00000     2.03233    45.38348    45.00000     2.03233
    14.60000    44.58199    44.00037     2.01650    44.58199    44.00037     2.01650
    14.70000    43.84005    45.00000     2.00218    43.84005    45.00000     2.00218
    14.80000    43.00938    43.95384     1.98650    43.00938    43.95384     1.98650
    14.90000    42.16299    45.00000     1.97091    42.16299    45.00000     1.97091
    15.00000    41.30059    43.90277     1.95543    41.30059    43.90277     1.95543
    15.10000    40.42193    45.00000     1.94007    40.42193    45.00000     1.94007
    15.20000    39.44470    45.00000     1.92348    39.44470    45.00000     1.92348
    15.30000    38.44746    46.21591     1.90707    38.44746    46.21591     1.90707
    15.40000    37.34440    45.00000     1.88953    37.34440    45.00000     1.88953
    15.50000    36.30463    46.28543     1.87359    36.30463    46.28543     1.87359
    15.60000    35.06561    43.63664     1.85531    35.06561    43.63664     1.85531
    15.70000    33.88941    45.00000     1.83869    33.88941    45.00000     1.83869
    15.80000    32.59513    46.45137     1.82120    32.59513    46.45137     1.82120
    15.90000    31.17650    46.55149     1.80297    31.17650    46.55149     1.80297
    16.00000    29.62690    45.00000     1.78416    29.62690    45.00000     1.78416
    16.10000    28.03977    45.00000     1.76607    28.03977    45.00000     1.76607
    16.20000    26.31286    45.00000     1.74771    26.31286    45.00000     1.74771
    16.30000    24.33427    45.00000     1.72832    24.33427    45.00000     1.72832
    16.40000    22.19773    45.00000     1.70929    22.19773    45.00000     1.70929
    16.50000    19.67569    45.00000     1.68932    19.67569    45.00000     1.68932
    16.60000    16.74664    47.99988     1.66940    16.74664    47.99988     1.66940
    16.70000    12.92329    45.00000     1.64848    12.92329    45.00000     1.64848
    16.80000     7.31626    51.42853     1.62785     7.31626    51.42853     1.62785
    16.90000     0.00000     0.00000     1.61827     0.00000     0.00000     1.61827
    17.00000     0.00000     0.00000     1.61837     0.00000     0.00000     1.61837
    17.10000     0.00000     0.00000     1.61847     0.00000     0.00000     1.61847
    17.20000     0.00000     0.00000     1.61857     0.00000     0.00000     1.61857
    17.30000     0.00000     0.00000     1.61867     0.00000     0.00000     1.61867
    17.40000     0.00000     0.00000     1.61877     0.00000     0.00000     1.61877
    17.50000     0.00000     0.00000     1.61887     0.00000     0.00000     1.61887
    17.60000     0.00000     0.00000     1.61897     0.00000     0.00000     1.61897
    17.70000     0.00000     0.00000     1.61907     0.00000     0.00000     1.61907
    17.80000     0.00000     0.00000     1.61916     0.00000     0.00000     1.61916
    17.90000     0.00000     0.00000     1.61926     0.00000     0.00000     1.61926
    18.00000     0.00000     0.00000     1.61936     0.00000     0.00000     1.61936
    18.10000     0.00000     0.00000     1.61946     0.00000     0.00000     1.61946
    18.20000     0.00000     0.00000     1.61956     0.00000     0.00000     1.61956
    18.30000     0.00000     0.00000     1.61966     0.00000     0.00000     1.61966
    18.40000     0.00000     0.00000     1.61976     0.00000     0.00000     1.61976
    18.50000     0.00000     0.00000     1.61986     0.00000     0.00000     1.61986
    18.60000     0.00000     0.00000     1.61996     0.00000     0.00000     1.61996
    18.70000     0.00000     0.00000     1.62006     0.00000     0.00000     1.62006
    18.80000     0.00000     0.00000     1.62016     0.00000     0.00000     1.62016
    18.90000     0.00000     0.00000     1.62025     0.00000     0.00000     1.62025
    19.00000     0.00000     0.00000     1.62035     0.00000     0.00000     1.62035
    19.10000     0.00000     0.00000     1.62045     0.00000     0.00000     1.62045
    19.20000     0.00000     0.00000     1.62055     0.00000     0.00000     1.62055
    19.30000     0.00000     0.00000     1.62065     0.00000     0.00000     1.62065
    19.40000     0.00000     0.00000     1.62075     0.00000     0.00000     1.62075
    19.50000     0.00000     0.00000     1.62085     0.00000     0.00000     1.62085
    19.60000     0.00000     0.00000     1.62095     0.00000     0.00000     1.62095
    19.70000     0.00000     0.00000     1.62105     0.00000     0.00000     1.62105
    19.80000     0.00000     0.00000     1.62114     0.00000     0.00000     1.62114
    19.90000     0.00000     0.00000     1.62124     0.00000     0.00000     1.62124
    20.00000     0.00000     0.00000     1.62134     0.00000     0.00000     1.62134
    20.10000     0.00000     0.00000     1.62144     0.00000     0.00000     1.62144
    20.20000     0.00000     0.00000     1.62154     0.00000     0.00000     1.62154
    20.30000     0.00000     0.00000     1.62164     0.00000     0.00000     1.62164
    20.40000     0.00000     0.00000     1.62174     0.00000     0.00000     1.62174
    20.50000     0.00000     0.00000     1.62184     0.00000     0.00000     1.62184
    20.60000     0.00000     0.00000     1.62193     0.00000     0.00000     1.62193
    20.70000     0.00000     0.00000     1.62203     0.00000     0.00000     1.62203
    20.80000     0.00000     0.00000     1.62213     0.00000     0.00000     1.62213
    20.90000     0.00000     0.00000     1.62223     0.00000     0.00000     1.62223
    21.00000     0.00000     0.00000     1.62233     0.00000     0.00000     1.62233
    21.10000     0.00000     0.00000     1.62243     0.00000     0.00000     1.62243
    21.20000     0.00000     0.00000     1.62253     0.00000     0.00000     1.62253
    21.30000     0.00000     0.00000     1.62262     0.00000     0.00000     1.62262
    21.40000     0.00000     0.00000     1.62272     0.00000     0.00000     1.62272
    21.50000     0.00000     0.00000     1.62282     0.00000     0.00000     1.62282
    21.60000     0.00000     0.00000     1.62292     0.00000     0.00000     1.62292
    21.70000     0.00000     0.00000     1.62302     0.00000     0.00000     1.62302
    21.80000     0.00000     0.00000     1.62312     0.00000     0.00000     1.62312
    21.90000     0.00000     0.00000     1.62321     0.00000     0.00000     1.62321
    22.00000     0.00000     0.00000     1.62331     0.00000     0.00000     1.62331
    22.10000     0.00000     0.00000     1.62341     0.00000     0.00000     1.62341
    22.20000     0.00000     0.00000     1.62351     0.00000     0.00000     1.62351
    22.30000     0.00000     0.00000     1.62361     0.00000     0.00000     1.62361
    22.40000     0.00000     0.00000     1.62371     0.00000     0.00000     1.62371
    22.50000     0.00000     0.00000     1.62380     0.00000     0.00000     1.62380
    22.60000     0.00000     0.00000     1.62390     0.00000     0.00000     1.62390
    22.70000     0.00000     0.00000     1.62400     0.00000     0.00000     1.62400
    22.80000     0.00000     0.00000     1.62410     0.00000     0.00000     1.62410
    22.90000     0.00000     0.00000     1.62420     0.00000     0.00000     1.62420
    23.00000     0.00000     0.00000     1.62429     0.00000     0.00000     1.62429
    23.10000     0.00000     0.00000     1.62439     0.00000     0.00000     1.62439
    23.20000     0.00000     0.00000     1.62449     0.00000     0.00000     1.62449
    23.30000     0.00000     0.00000     1.62459     0.00000     0.00000     1.62459
    23.40000     0.00000     0.00000     1.62469     0.00000     0.00000     1.62469
    23.50000     0.00000     0.00000     1.62479     0.00000     0.00000     1.62479
    23.60000     0.00000     0.00000     1.62488     0.00000     0.00000     1.62488
    23.70000     0.00000     0.00000     1.62498     0.00000     0.00000     1.62498
    23.80000     0.00000     0.00000     1.62508     0.00000     0.00000     1.62508
    23.90000     0.00000     0.00000     1.62518     0.00000     0.00000     1.62518
    24.00000     0.00000     0.00000     1.62528     0.00000     0.00000     1.62528
    24.10000     0.00000     0.00000     1.62537     0.00000     0.00000     1.62537
    24.20000     0.00000     0.00000     1.62547     0.00000     0.00000     1.62547
    24.30000     0.00000     0.00000     1.62557     0.00000     0.00000     1.62557
    24.40000     0.00000     0.00000     1.62567     0.00000     0.00000     1.62567
    24.50000     0.00000     0.00000     1.62576     0.00000     0.00000     1.62576
    24.60000     0.00000     0.00000     1.62586     0.00000     0.00000     1.62586
    24.70000     0.00000     0.00000     1.62596     0.00000     0.00000     1.62596
    24.80000     0.00000     0.00000     1.62606     0.00000     0.00000     1.62606
    24.90000     0.00000     0.00000     1.62616     0.00000     0.00000     1.62616
    25.00000     0.00000     0.00000     1.62625     0.00000     0.00000     1.62625
    25.10000     0.00000     0.00000     1.62635     0.00000     0.00000     1.62635
    25.20000     0.00000     0.00000     1.62645     0.00000     0.00000     1.62645
    25.30000     0.00000     0.00000     1.62655     0.00000     0.00000     1.62655
    25.40000     0.00000     0.00000     1.62664     0.00000     0.00000     1.62664
    25.50000     0.00000     0.00000     1.62674     0.00000     0.00000     1.62674
    25.60000     0.00000     0.00000     1.62684     0.00000     0.00000     1.62684
    25.70000     0.00000     0.00000     1.62694     0.00000     0.00000     1.62694
    25.80000     0.00000     0.00000     1.62703     0.00000     0.00000     1.62703
    25.90000     0.00000     0.00000     1.62713     0.00000     0.00000     1.62713
    26.00000     0.00000     0.00000     1.62723     0.00000     0.00000     1.62723
    26.10000     0.00000     0.00000     1.62733     0.00000     0.00000     1.62733
    26.20000     0.00000     0.00000     1.62742     0.00000     0.00000     1.62742
    26.30000     0.00000     0.00000     1.62752     0.00000     0.00000     1.62752
    26.40000     0.00000     0.00000     1.62762     0.00000     0.00000     1.62762
    26.50000     0.00000     0.00000     1.62772     0.00000     0.00000     1.62772
    26.60000     0.00000     0.00000     1.62781     0.00000     0.00000     1.62781
    26.70000     0.00000     0.00000     1.62791     0.00000     0.00000     1.62791
    26.80000     0.00000     0.00000     1.62801     0.00000     0.00000     1.62801
    26.90000     0.00000     0.00000     1.62811     0.00000     0.00000     1.62811
    27.00000     0.00000     0.00000     1.62820     0.00000     0.00000     1.62820
    27.10000     0.00000     0.00000     1.62830     0.00000     0.00000     1.62830
    27.20000     0.00000     0.00000     1.62840     0.00000     0.00000     1.62840
    27.30000     0.00000     0.00000     1.62849     0.00000     0.00000     1.62849
    27.40000     0.00000     0.00000     1.62859     0.00000     0.00000     1.62859
    27.50000     0.00000     0.00000     1.62869     0.00000     0.00000     1.62869
    27.60000     0.00000     0.00000     1.62879     0.00000     0.00000     1.62879
    27.70000     0.00000     0.00000     1.62888     0.00000     0.00000     1.62888
    27.80000     0.00000     0.00000     1.62898     0.00000     0.00000     1.62898
    27.90000     0.00000     0.00000     1.62908     0.00000     0.00000     1.62908
    28.00000     0.00000     0.00000     1.62917     0.00000     0.00000     1.62917
    28.10000     0.00000     0.00000     1.62927     0.00000     0.00000     1.62927
    28.20000     0.00000     0.00000     1.62937     0.00000     0.00000     1.62937
    28.30000     0.00000     0.00000     1.62947     0.00000     0.00000     1.62947
    28.40000     0.00000     0.00000     1.62956     0.00000     0.00000     1.62956
    28.50000     0.00000     0.00000     1.62966     0.00000     0.00000     1.62966
    28.60000     0.00000     0.00000     1.62976     0.00000     0.00000     1.62976
    28.70000     0.00000     0.00000     1.62985     0.00000     0.00000     1.62985
    28.80000     0.00000     0.00000     1.62995     0.00000     0.00000     1.62995
    28.90000     0.00000     0.00000     1.63005     0.00000     0.00000     1.63005
    29.00000     0.00000     0.00000     1.63014     0.00000     0.00000     1.63014
    29.10000     0.00000     0.00000     1.63024     0.00000     0.00000     1.63024
    29.20000     0.00000     0.00000     1.63034     0.00000     0.00000     1.63034
    29.30000     0.00000     0.00000     1.63044     0.00000     0.00000     1.63044
    29.40000     0.00000     0.00000     1.63053     0.00000     0.00000     1.63053
    29.50000     0.00000     0.00000     1.63063     0.00000     0.00000     1.63063
    29.60000     0.00000     0.00000     1.63073     0.00000     0.00000     1.63073
    29.70000     0.00000     0.00000     1.63082     0.00000     0.00000     1.63082
    29.80000     0.00000     0.00000     1.63092     0.00000     0.00000     1.63092
    29.90000     0.00000     0.00000     1.63102     0.00000     0.00000     1.63102
    30.00000     0.00000     0.00000     1.63111     0.00000     0.00000     1.63111
    30.10000     0.00000     0.00000     1.63121     0.00000     0.00000     1.63121
    30.20000     0.00000     0.00000     1.63131     0.00000     0.00000     1.63131
    30.30000     0.00000     0.00000     1.63140     0.00000     0.00000     1.63140
    30.40000     0.00000     0.00000     1.63150     0.00000     0.00000     1.63150
    30.50000     0.00000     0.00000     1.63160     0.00000     0.00000     1.63160
    30.60000     0.00000     0.00000     1.63169     0.00000     0.00000     1.63169
    30.70000     0.00000     0.00000     1.63179     0.00000     0.00000     1.63179
    30.80000     0.00000     0.00000     1.63189     0.00000     0.00000     1.63189
    30.90000     0.00000     0.00000     1.63198     0.00000     0.00000     1.63198
    31.00000     0.00000     0.00000     1.63208     0.00000     0.00000     1.63208
    31.10000     0.00000     0.00000     1.63217     0.00000     0.00000     1.63217
    31.20000     0.00000     0.00000     1.63227     0.00000     0.00000     1.63227
    31.30000     0.00000     0.00000     1.63237     0.00000     0.00000     1.63237
    31.40000     0.00000     0.00000     1.63246     0.00000     0.00000     1.63246
    31.50000     0.00000     0.00000     1.63256     0.00000     0.00000     1.63256
    31.60000     0.00000     0.00000     1.63266     0.00000     0.00000     1.63266
    31.70000     0.00000     0.00000     1.63275     0.00000     0.00000     1.63275
    31.80000     0.00000     0.00000     1.63285     0.00000     0.00000     1.63285
    31.90000     0.00000     0.00000     1.63295     0.00000     0.00000     1.63295
    32.00000     0.00000     0.00000     1.63304     0.00000     0.00000     1.63304
    32.10000     0.00000     0.00000     1.63314     0.00000     0.00000     1.63314
    32.20000     0.00000     0.00000     1.63323     0.00000     0.00000     1.63323
    32.30000     0.00000     0.00000     1.63333     0.00000     0.00000     1.63333
    32.40000     0.00000     0.00000     1.63343     0.00000     0.00000     1.63343
    32.50000     0.00000     0.00000     1.63352     0.00000     0.00000     1.63352
    32.60000     0.00000     0.00000     1.63362     0.00000     0.00000     1.63362
    32.70000     0.00000     0.00000     1.63372     0.00000     0.00000     1.63372
    32.80000     0.00000     0.00000     1.63381     0.00000     0.00000     1.63381
    32.90000     0.00000     0.00000     1.63391     0.00000     0.00000     1.63391
    33.00000     0.00000     0.00000     1.63400     0.00000     0.00000     1.63400
    33.10000     0.00000     0.00000     1.63410     0.00000     0.00000     1.63410
    33.20000     0.00000     0.00000     1.63420     0.00000     0.00000     1.63420
    33.30000     0.00000     0.00000     1.63429     0.00000     0.00000     1.63429
    33.40000     0.00000     0.00000     1.63439     0.00000     0.00000     1.63439
    33.50000     0.00000     0.00000     1.63448     0.00000     0.00000     1.63448
    33.60000     0.00000     0.00000     1.63458     0.00000     0.00000     1.63458
    33.70000     0.00000     0.00000     1.63468     0.00000     0.00000     1.63468
    33.80000     0.00000     0.00000     1.63477     0.00000     0.00000     1.63477
    33.90000     0.00000     0.00000     1.63487     0.00000     0.00000     1.63487
    34.00000     0.00000     0.00000     1.63496     0.00000     0.00000     1.63496
    34.10000     0.00000     0.00000     1.63506     0.00000     0.00000     1.63506
    34.20000     0.00000     0.00000     1.63515     0.00000     0.00000     1.63515
    34.30000     0.00000     0.00000     1.63525     0.00000     0.00000     1.63525
    34.40000     0.00000     0.00000     1.63535     0.00000     0.00000     1.63535
    34.50000     0.00000     0.00000     1.63544     0.00000     0.00000     1.63544
    34.60000     0.00000     0.00000     1.63554     0.00000     0.00000     1.63554
    34.70000     0.00000     0.00000     1.63563     0.00000     0.00000     1.63563
    34.80000     0.00000     0.00000     1.63573     0.00000     0.00000     1.63573
    34.90000     0.00000     0.00000     1.63582     0.00000     0.00000     1.63582
    35.00000     0.00000     0.00000     1.63592     0.00000     0.00000     1.63592
    35.10000     0.00000     0.00000     1.63602     0.00000     0.00000     1.63602
    35.20000     0.00000     0.00000     1.63611     0.00000     0.00000     1.63611
    35.30000     0.00000     0.00000     1.63621     0.00000     0.00000     1.63621
    35.40000     0.00000     0.00000     1.63630     0.00000     0.00000     1.63630
    35.50000     0.00000     0.00000     1.63640     0.00000     0.00000     1.63640
    35.60000     0.00000     0.00000     1.63649     0.00000     0.00000     1.63649
    35.70000     0.00000     0.00000     1.63659     0.00000     0.00000     1.63659
    35.80000     0.00000     0.00000     1.63668     0.00000     0.00000     1.63668
    35.90000     0.00000     0.00000     1.63678     0.00000     0.00000     1.63678
    36.00000     0.00000     0.00000     1.63688     0.00000     0.00000     1.63688
    36.10000     0.00000     0.00000     1.63697     0.00000     0.00000     1.63697
    36.20000     0.00000     0.00000     1.63707     0.00000     0.00000     1.63707
    36.30000     0.00000     0.00000     1.63716     0.00000     0.00000     1.63716
    36.40000     0.00000     0.00000     1.63726     0.00000     0.00000     1.63726
    36.50000     0.00000     0.00000     1.63735     0.00000     0.00000     1.63735
    36.60000     0.00000     0.00000     1.63745     0.00000     0.00000     1.63745
    36.70000     0.00000     0.00000     1.63754     0.00000     0.00000     1.63754
    36.80000     0.00000     0.00000     1.63764     0.00000     0.00000     1.63764
    36.90000     0.00000     0.00000     1.63773     0.00000     0.00000     1.63773
    37.00000     0.00000     0.00000     1.63783     0.00000     0.00000     1.63783
    37.10000     0.00000     0.00000     1.63792     0.00000     0.00000     1.63792
    37.20000     0.00000     0.00000     1.63802     0.00000     0.00000     1.63802
    37.30000     0.00000     0.00000     1.63811     0.00000     0.00000     1.63811
    37.40000     0.00000     0.00000     1.63821     0.00000     0.00000     1.63821
    37.50000     0.00000     0.00000     1.63831     0.00000     0.00000     1.63831
    37.60000     0.00000     0.00000     1.63840     0.00000     0.00000     1.63840
    37.70000     0.00000     0.00000     1.63850     0.00000     0.00000     1.63850
    37.80000     0.00000     0.00000     1.63859     0.00000     0.00000     1.63859
    37.90000     0.00000     0.00000     1.63869     0.00000     0.00000     1.63869
    38.00000     0.00000     0.00000     1.63878     0.00000     0.00000     1.63878
    38.10000     0.00000     0.00000     1.63888     0.00000     0.00000     1.63888
    38.20000     0.00000     0.00000     1.63897     0.00000     0.00000     1.63897
    38.30000     0.00000     0.00000     1.63907     0.00000     0.00000     1.63907
    38.40000     0.00000     0.00000     1.63916     0.00000     0.00000     1.63916
    38.50000     0.00000     0.00000     1.63926     0.00000     0.00000     1.63926
    38.60000     0.00000     0.00000     1.63935     0.00000     0.00000     1.63935
    38.70000     0.00000     0.00000     1.63945     0.00000     0.00000     1.63945
    38.80000     0.00000     0.00000     1.63954     0.00000     0.00000     1.63954
    38.90000     0.00000     0.00000     1.63963     0.00000     0.00000     1.63963
    39.00000     0.00000     0.00000     1.63973     0.00000     0.00000     1.63973
    39.10000     0.00000     0.00000     1.63982     0.00000     0.00000     1.63982
    39.20000     0.00000     0.00000     1.63992     0.00000     0.00000     1.63992
    39.30000     0.00000     0.00000     1.64001     0.00000     0.00000     1.64001
    39.40000     0.00000     0.00000     1.64011     0.00000     0.00000     1.64011
    39.50000     0.00000     0.00000     1.64020     0.00000     0.00000     1.64020
    39.60000     0.00000     0.00000     1.64030     0.00000     0.00000     1.64030
    39.70000     0.00000     0.00000     1.64039     0.00000     0.00000     1.64039
    39.80000     0.00000     0.00000     1.64049     0.00000     0.00000     1.64049
    39.90000     0.00000     0.00000     1.64058     0.00000     0.00000     1.64058
    40.00000     0.00000     0.00000     1.64068     0.00000     0.00000     1.64068
