 # applied field (T), theta (degree), phi (degree), abs for RE 1-2
     0.00000    90.00000   224.57206     2.98814    90.00000   224.57206     2.98814
     0.10000    90.23094   225.42794     2.98811    90.23094   225.42794     2.98811
     0.20000    90.49525   225.42794     2.98800    90.49525   225.42794     2.98800
     0.30000    90.72623   224.57206     2.98784    90.72623   224.57206     2.98784
     0.40000    90.99062   224.57206     2.98757    90.99062   224.57206     2.98757
     0.50000    91.22169   225.42794     2.98728    91.22169   225.42794     2.98728
     0.60000    91.48622   225.42794     2.98687    91.48622   225.42794     2.98687
     0.70000    91.71744   224.57206     2.98644    91.71744   224.57206     2.98644
     0.80000    91.94875   225.42794     2.98595    91.94875   225.42794     2.98595
     0.90000    92.21359   224.57206     2.98531    92.21359   224.57206     2.98531
     1.00000    92.44514   225.42794     2.98469    92.44514   225.42794     2.98469
     1.10000    92.71027   224.57206     2.98391    92.71027   224.57206     2.98391
     1.20000    92.94210   224.57206     2.98315    92.94210   224.57206     2.98315
     1.30000    93.20759   225.42795     2.98221    93.20759   225.42795     2.98221
     1.40000    93.43975   224.57205     2.98133    93.43975   224.57205     2.98133
     1.50000    93.67209   225.42795     2.98038    93.67209   225.42795     2.98038
     1.60000    93.93822   225.00000     2.97922    93.93822   225.00000     2.97922
     1.70000    94.17099   225.00000     2.97813    94.17099   225.00000     2.97813
     1.80000    94.43763   225.00000     2.97682    94.43763   225.00000     2.97682
     1.90000    94.67088   225.00000     2.97561    94.67088   225.00000     2.97561
     2.00000    94.93810   225.00000     2.97414    94.93810   225.00000     2.97414
     2.10000    95.17188   225.00000     2.97279    95.17188   225.00000     2.97279
     2.20000    95.40593   225.00000     2.97138    95.40593   225.00000     2.97138
     2.30000    95.67413   225.00000     2.96969    95.67413   225.00000     2.96969
     2.40000    95.90880   225.00000     2.96814    95.90880   225.00000     2.96814
     2.50000    96.17775   225.43627     2.96630    96.17775   225.43627     2.96630
     2.60000    96.41310   224.56373     2.96462    96.41310   224.56373     2.96462
     2.70000    96.68286   224.56373     2.96263    96.68286   224.56373     2.96263
     2.80000    96.91896   224.56372     2.96081    96.91896   224.56372     2.96081
     2.90000    97.15543   224.56372     2.95893    97.15543   224.56372     2.95893
     3.00000    97.42651   225.43628     2.95671    97.42651   225.43628     2.95671
     3.10000    97.66381   225.00000     2.95470    97.66381   225.00000     2.95470
     3.20000    97.93588   225.00000     2.95232    97.93588   225.00000     2.95232
     3.30000    98.17408   225.00000     2.95017    98.17408   225.00000     2.95017
     3.40000    98.41272   225.00000     2.94796    98.41272   225.00000     2.94796
     3.50000    98.68638   225.00000     2.94536    98.68638   225.00000     2.94536
     3.60000    98.92601   225.00000     2.94301    98.92601   225.00000     2.94301
     3.70000    99.20084   224.55507     2.94025    99.20084   224.55507     2.94025
     3.80000    99.44154   225.44494     2.93776    99.44154   225.44494     2.93776
     3.90000    99.68275   224.55506     2.93522    99.68275   224.55506     2.93522
     4.00000    99.95944   225.44494     2.93223    99.95944   225.44494     2.93223
     4.10000   100.20181   225.00000     2.92954   100.20181   225.00000     2.92954
     4.20000   100.44476   225.00000     2.92679   100.44476   225.00000     2.92679
     4.30000   100.72348   225.00000     2.92357   100.72348   225.00000     2.92357
     4.40000   100.96769   225.00000     2.92068   100.96769   225.00000     2.92068
     4.50000   101.24790   224.54606     2.91731   101.24790   224.54606     2.91731
     4.60000   101.49345   224.54605     2.91428   101.49345   224.54605     2.91428
     4.70000   101.73965   225.45395     2.91119   101.73965   225.45395     2.91119
     4.80000   102.02220   225.45395     2.90758   102.02220   225.45395     2.90758
     4.90000   102.26985   225.00000     2.90435   102.26985   225.00000     2.90435
     5.00000   102.51820   225.00000     2.90106   102.51820   225.00000     2.90106
     5.10000   102.80328   225.00000     2.89722   102.80328   225.00000     2.89722
     5.20000   103.05320   225.00000     2.89379   103.05320   225.00000     2.89379
     5.30000   103.34012   224.53667     2.88978   103.34012   224.53667     2.88978
     5.40000   103.59169   224.53667     2.88621   103.59169   224.53667     2.88621
     5.50000   103.84406   225.46334     2.88257   103.84406   225.46334     2.88257
     5.60000   104.13384   225.00000     2.87834   104.13384   225.00000     2.87834
     5.70000   104.38799   225.00000     2.87456   104.38799   225.00000     2.87456
     5.80000   104.64298   225.00000     2.87072   104.64298   225.00000     2.87072
     5.90000   104.93585   225.47311     2.86625   104.93585   225.47311     2.86625
     6.00000   105.19275   224.52689     2.86226   105.19275   224.52689     2.86226
     6.10000   105.45057   225.47311     2.85821   105.45057   225.47311     2.85821
     6.20000   105.74674   225.00000     2.85351   105.74674   225.00000     2.85351
     6.30000   106.00659   225.00000     2.84932   106.00659   225.00000     2.84932
     6.40000   106.30514   225.00000     2.84445   106.30514   225.00000     2.84445
     6.50000   106.56714   225.48330     2.84012   106.56714   225.48330     2.84012
     6.60000   106.83016   225.48331     2.83572   106.83016   225.48331     2.83572
     6.70000   107.13241   224.51669     2.83062   107.13241   224.51669     2.83062
     6.80000   107.39771   225.00000     2.82608   107.39771   225.00000     2.82608
     6.90000   107.66411   225.00000     2.82148   107.66411   225.00000     2.82148
     7.00000   107.97031   224.50605     2.81614   107.97031   224.50605     2.81614
     7.10000   108.23914   225.49395     2.81139   108.23914   225.49395     2.81139
     7.20000   108.50915   224.50604     2.80658   108.50915   224.50604     2.80658
     7.30000   108.81955   225.00000     2.80101   108.81955   225.00000     2.80101
     7.40000   109.09215   225.00000     2.79606   109.09215   225.00000     2.79606
     7.50000   109.40559   224.49493     2.79032   109.40559   224.49493     2.79032
     7.60000   109.68090   225.50508     2.78523   109.68090   225.50508     2.78523
     7.70000   109.95750   225.50508     2.78007   109.95750   225.50508     2.78007
     7.80000   110.27562   225.00000     2.77410   110.27562   225.00000     2.77410
     7.90000   110.55510   225.00000     2.76880   110.55510   225.00000     2.76880
     8.00000   110.87658   225.51671     2.76267   110.87658   225.51671     2.76267
     8.10000   111.15907   225.51671     2.75724   111.15907   225.51671     2.75724
     8.20000   111.44300   224.48328     2.75173   111.44300   224.48328     2.75173
     8.30000   111.76966   225.00000     2.74537   111.76966   225.00000     2.74537
     8.40000   112.05678   225.00000     2.73973   112.05678   225.00000     2.73973
     8.50000   112.38717   225.52889     2.73321   112.38717   225.52889     2.73321
     8.60000   112.67761   225.52890     2.72743   112.67761   225.52890     2.72743
     8.70000   113.01186   225.00000     2.72076   113.01186   225.00000     2.72076
     8.80000   113.30576   225.00000     2.71484   113.30576   225.00000     2.71484
     8.90000   113.64405   225.54166     2.70801   113.64405   225.54166     2.70801
     9.00000   113.94155   224.45834     2.70196   113.94155   224.45834     2.70196
     9.10000   114.24078   225.00000     2.69585   114.24078   225.00000     2.69585
     9.20000   114.58528   225.00000     2.68879   114.58528   225.00000     2.68879
     9.30000   114.88833   225.55506     2.68255   114.88833   225.55506     2.68255
     9.40000   115.23728   224.44494     2.67534   115.23728   224.44494     2.67534
     9.50000   115.58866   225.00000     2.66805   115.58866   225.00000     2.66805
     9.60000   115.89785   225.00000     2.66161   115.89785   225.00000     2.66161
     9.70000   116.25397   224.43087     2.65417   116.25397   224.43087     2.65417
     9.80000   116.56737   224.43086     2.64759   116.56737   224.43086     2.64759
     9.90000   116.92838   225.00000     2.64001   116.92838   225.00000     2.64001
    10.00000   117.24616   225.00000     2.63331   117.24616   225.00000     2.63331
    10.10000   117.61227   224.41606     2.62558   117.61227   224.41606     2.62558
    10.20000   117.98117   225.58395     2.61778   117.98117   225.58395     2.61778
    10.30000   118.30599   225.00000     2.61089   118.30599   225.00000     2.61089
    10.40000   118.68029   225.00000     2.60295   118.68029   225.00000     2.60295
    10.50000   119.05756   225.59954     2.59494   119.05756   225.59954     2.59494
    10.60000   119.38983   225.00000     2.58786   119.38983   225.00000     2.58786
    10.70000   119.77281   225.00000     2.57972   119.77281   225.00000     2.57972
    10.80000   120.15893   224.38401     2.57150   120.15893   224.38401     2.57150
    10.90000   120.54825   225.61599     2.56322   120.54825   225.61599     2.56322
    11.00000   120.94081   225.00000     2.55486   120.94081   225.00000     2.55486
    11.10000   121.28673   224.36664     2.54750   121.28673   224.36664     2.54750
    11.20000   121.68558   224.36663     2.53902   121.68558   224.36663     2.53902
    11.30000   122.08788   225.00000     2.53048   122.08788   225.00000     2.53048
    11.40000   122.49368   225.00000     2.52188   122.49368   225.00000     2.52188
    11.50000   122.90307   224.34825     2.51322   122.90307   224.34825     2.51322
    11.60000   123.31609   225.00000     2.50450   123.31609   225.00000     2.50450
    11.70000   123.73282   225.00000     2.49572   123.73282   225.00000     2.49572
    11.80000   124.15334   224.32877     2.48689   124.15334   224.32877     2.48689
    11.90000   124.57770   225.00000     2.47800   124.57770   225.00000     2.47800
    12.00000   125.00598   225.00000     2.46906   125.00598   225.00000     2.46906
    12.10000   125.49288   224.30809     2.45895   125.49288   224.30809     2.45895
    12.20000   125.92972   225.00000     2.44991   125.92972   225.00000     2.44991
    12.30000   126.37070   225.00000     2.44082   126.37070   225.00000     2.44082
    12.40000   126.81590   224.28610     2.43168   126.81590   224.28610     2.43168
    12.50000   127.32218   225.00000     2.42136   127.32218   225.00000     2.42136
    12.60000   127.77657   225.00000     2.41214   127.77657   225.00000     2.41214
    12.70000   128.29339   225.73733     2.40173   128.29339   225.73733     2.40173
    12.80000   128.75731   225.00000     2.39243   128.75731   225.00000     2.39243
    12.90000   129.28504   225.76234     2.38194   129.28504   225.76234     2.38194
    13.00000   129.75883   224.23765     2.37258   129.75883   224.23765     2.37258
    13.10000   130.29784   225.00000     2.36202   130.29784   225.00000     2.36202
    13.20000   130.84299   225.78912     2.35143   130.84299   225.78912     2.35143
    13.30000   131.39437   225.00000     2.34082   131.39437   225.00000     2.34082
    13.40000   131.95210   224.18217     2.33019   131.95210   224.18217     2.33019
    13.50000   132.51628   225.81784     2.31954   132.51628   225.81784     2.31954
    13.60000   133.08701   225.00000     2.30889   133.08701   225.00000     2.30889
    13.70000   133.66441   224.15127     2.29822   133.66441   224.15127     2.29822
    13.80000   134.31415   225.00000     2.28637   134.31415   225.00000     2.28637
    13.90000   134.90595   224.11797     2.27570   134.90595   224.11797     2.27570
    14.00000   135.57194   225.00000     2.26387   135.57194   225.00000     2.26387
    14.10000   136.17859   225.00000     2.25322   136.17859   225.00000     2.25322
    14.20000   136.86133   224.08193     2.24143   136.86133   224.08193     2.24143
    14.30000   137.55306   225.00000     2.22966   137.55306   225.00000     2.22966
    14.40000   138.25392   225.95716     2.21793   138.25392   225.95716     2.21793
    14.50000   138.96402   225.00000     2.20625   138.96402   225.00000     2.20625
    14.60000   139.75618   224.00028     2.19348   139.75618   224.00028     2.19348
    14.70000   140.48607   225.00000     2.18192   140.48607   225.00000     2.18192
    14.80000   141.30025   223.95375     2.16931   141.30025   223.95375     2.16931
    14.90000   142.12614   225.00000     2.15679   142.12614   225.00000     2.15679
    15.00000   142.96388   223.90269     2.14438   142.96388   223.90269     2.14438
    15.10000   143.81355   225.00000     2.13210   143.81355   225.00000     2.13210
    15.20000   144.75438   225.00000     2.11887   144.75438   225.00000     2.11887
    15.30000   145.70962   226.21598     2.10582   145.70962   226.21598     2.10582
    15.40000   146.76097   225.00000     2.09190   146.76097   225.00000     2.09190
    15.50000   147.74644   226.28550     2.07928   147.74644   226.28550     2.07928
    15.60000   148.91486   223.63657     2.06486   148.91486   223.63657     2.06486
    15.70000   150.01739   225.00000     2.05177   150.01739   225.00000     2.05177
    15.80000   151.22387   226.45143     2.03803   151.22387   226.45143     2.03803
    15.90000   152.53835   226.55154     2.02377   152.53835   226.55154     2.02377
    16.00000   153.96503   225.00000     2.00910   153.96503   225.00000     2.00910
    16.10000   155.41653   225.00000     1.99503   155.41653   225.00000     1.99503
    16.20000   156.98543   225.00000     1.98080   156.98543   225.00000     1.98080
    16.30000   158.77045   225.00000     1.96582   158.77045   225.00000     1.96582
    16.40000   160.68376   225.00000     1.95117   160.68376   225.00000     1.95117
    16.50000   162.92513   225.00000     1.93586   162.92513   225.00000     1.93586
    16.60000   165.50727   227.99991     1.92065   165.50727   227.99991     1.92065
    16.70000   168.84923   225.00000     1.90475   168.84923   225.00000     1.90475
    16.80000   173.70605   231.42854     1.88912   173.70605   231.42854     1.88912
    16.90000   180.00000   180.00000     1.88180   180.00000   180.00000     1.88180
    17.00000   180.00000   360.00000     1.88169   180.00000   360.00000     1.88169
    17.10000   180.00000   360.00000     1.88158   180.00000   360.00000     1.88158
    17.20000   180.00000   360.00000     1.88148   180.00000   360.00000     1.88148
    17.30000   180.00000   360.00000     1.88137   180.00000   360.00000     1.88137
    17.40000   180.00000   360.00000     1.88127   180.00000   360.00000     1.88127
    17.50000   180.00000   180.00000     1.88116   180.00000   180.00000     1.88116
    17.60000   180.00000   180.00000     1.88105   180.00000   180.00000     1.88105
    17.70000   180.00000   180.00000     1.88095   180.00000   180.00000     1.88095
    17.80000   180.00000   180.00000     1.88084   180.00000   180.00000     1.88084
    17.90000   180.00000   360.00000     1.88073   180.00000   360.00000     1.88073
    18.00000   180.00000   360.00000     1.88063   180.00000   360.00000     1.88063
    18.10000   180.00000   180.00000     1.88052   180.00000   180.00000     1.88052
    18.20000   180.00000   180.00000     1.88041   180.00000   180.00000     1.88041
    18.30000   180.00000   360.00000     1.88031   180.00000   360.00000     1.88031
    18.40000   180.00000   180.00000     1.88020   180.00000   180.00000     1.88020
    18.50000   180.00000   360.00000     1.88009   180.00000   360.00000     1.88009
    18.60000   180.00000   180.00000     1.87999   180.00000   180.00000     1.87999
    18.70000   180.00000   360.00000     1.87988   180.00000   360.00000     1.87988
    18.80000   180.00000   360.00000     1.87977   180.00000   360.00000     1.87977
    18.90000   180.00000   360.00000     1.87967   180.00000   360.00000     1.87967
    19.00000   180.00000   360.00000     1.87956   180.00000   360.00000     1.87956
    19.10000   180.00000   180.00000     1.87945   180.00000   180.00000     1.87945
    19.20000   180.00000   360.00000     1.87935   180.00000   360.00000     1.87935
    19.30000   180.00000   180.00000     1.87924   180.00000   180.00000     1.87924
    19.40000   180.00000   180.00000     1.87913   180.00000   180.00000     1.87913
    19.50000   180.00000   180.00000     1.87903   180.00000   180.00000     1.87903
    19.60000   180.00000   360.00000     1.87892   180.00000   360.00000     1.87892
    19.70000   180.00000   360.00000     1.87881   180.00000   360.00000     1.87881
    19.80000   180.00000   180.00000     1.87871   180.00000   180.00000     1.87871
    19.90000   180.00000   180.00000     1.87860   180.00000   180.00000     1.87860
    20.00000   180.00000   180.00000     1.87849   180.00000   180.00000     1.87849
    20.10000   180.00000   360.00000     1.87839   180.00000   360.00000     1.87839
    20.20000   180.00000   360.00000     1.87828   180.00000   360.00000     1.87828
    20.30000   180.00000   180.00000     1.87817   180.00000   180.00000     1.87817
    20.40000   180.00000   360.00000     1.87807   180.00000   360.00000     1.87807
    20.50000   180.00000   360.00000     1.87796   180.00000   360.00000     1.87796
    20.60000   180.00000   360.00000     1.87785   180.00000   360.00000     1.87785
    20.70000   180.00000   180.00000     1.87775   180.00000   180.00000     1.87775
    20.80000   180.00000   360.00000     1.87764   180.00000   360.00000     1.87764
    20.90000   180.00000   180.00000     1.87753   180.00000   180.00000     1.87753
    21.00000   180.00000   360.00000     1.87742   180.00000   360.00000     1.87742
    21.10000   180.00000   180.00000     1.87732   180.00000   180.00000     1.87732
    21.20000   180.00000   360.00000     1.87721   180.00000   360.00000     1.87721
    21.30000   180.00000   180.00000     1.87710   180.00000   180.00000     1.87710
    21.40000   180.00000   360.00000     1.87700   180.00000   360.00000     1.87700
    21.50000   180.00000   180.00000     1.87689   180.00000   180.00000     1.87689
    21.60000   180.00000   360.00000     1.87678   180.00000   360.00000     1.87678
    21.70000   180.00000   360.00000     1.87667   180.00000   360.00000     1.87667
    21.80000   180.00000   180.00000     1.87657   180.00000   180.00000     1.87657
    21.90000   180.00000   180.00000     1.87646   180.00000   180.00000     1.87646
    22.00000   180.00000   360.00000     1.87635   180.00000   360.00000     1.87635
    22.10000   180.00000   360.00000     1.87625   180.00000   360.00000     1.87625
    22.20000   180.00000   360.00000     1.87614   180.00000   360.00000     1.87614
    22.30000   180.00000   360.00000     1.87603   180.00000   360.00000     1.87603
    22.40000   180.00000   360.00000     1.87592   180.00000   360.00000     1.87592
    22.50000   180.00000   360.00000     1.87582   180.00000   360.00000     1.87582
    22.60000   180.00000   180.00000     1.87571   180.00000   180.00000     1.87571
    22.70000   180.00000   360.00000     1.87560   180.00000   360.00000     1.87560
    22.80000   180.00000   360.00000     1.87549   180.00000   360.00000     1.87549
    22.90000   180.00000   360.00000     1.87539   180.00000   360.00000     1.87539
    23.00000   180.00000   360.00000     1.87528   180.00000   360.00000     1.87528
    23.10000   180.00000   360.00000     1.87517   180.00000   360.00000     1.87517
    23.20000   180.00000   180.00000     1.87506   180.00000   180.00000     1.87506
    23.30000   180.00000   180.00000     1.87496   180.00000   180.00000     1.87496
    23.40000   180.00000   360.00000     1.87485   180.00000   360.00000     1.87485
    23.50000   180.00000   360.00000     1.87474   180.00000   360.00000     1.87474
    23.60000   180.00000   180.00000     1.87463   180.00000   180.00000     1.87463
    23.70000   180.00000   180.00000     1.87453   180.00000   180.00000     1.87453
    23.80000   180.00000   360.00000     1.87442   180.00000   360.00000     1.87442
    23.90000   180.00000   360.00000     1.87431   180.00000   360.00000     1.87431
    24.00000   180.00000   360.00000     1.87420   180.00000   360.00000     1.87420
    24.10000   180.00000   360.00000     1.87410   180.00000   360.00000     1.87410
    24.20000   180.00000   180.00000     1.87399   180.00000   180.00000     1.87399
    24.30000   180.00000   180.00000     1.87388   180.00000   180.00000     1.87388
    24.40000   180.00000   180.00000     1.87377   180.00000   180.00000     1.87377
    24.50000   180.00000   360.00000     1.87367   180.00000   360.00000     1.87367
    24.60000   180.00000   360.00000     1.87356   180.00000   360.00000     1.87356
    24.70000   180.00000   360.00000     1.87345   180.00000   360.00000     1.87345
    24.80000   180.00000   360.00000     1.87334   180.00000   360.00000     1.87334
    24.90000   180.00000   360.00000     1.87324   180.00000   360.00000     1.87324
    25.00000   180.00000   360.00000     1.87313   180.00000   360.00000     1.87313
    25.10000   180.00000   360.00000     1.87302   180.00000   360.00000     1.87302
    25.20000   180.00000   360.00000     1.87291   180.00000   360.00000     1.87291
    25.30000   180.00000   360.00000     1.87280   180.00000   360.00000     1.87280
    25.40000   180.00000   180.00000     1.87270   180.00000   180.00000     1.87270
    25.50000   180.00000   360.00000     1.87259   180.00000   360.00000     1.87259
    25.60000   180.00000   360.00000     1.87248   180.00000   360.00000     1.87248
    25.70000   180.00000   360.00000     1.87237   180.00000   360.00000     1.87237
    25.80000   180.00000   180.00000     1.87227   180.00000   180.00000     1.87227
    25.90000   180.00000   360.00000     1.87216   180.00000   360.00000     1.87216
    26.00000   180.00000   360.00000     1.87205   180.00000   360.00000     1.87205
    26.10000   180.00000   180.00000     1.87194   180.00000   180.00000     1.87194
    26.20000   180.00000   180.00000     1.87183   180.00000   180.00000     1.87183
    26.30000   180.00000   360.00000     1.87173   180.00000   360.00000     1.87173
    26.40000   180.00000   180.00000     1.87162   180.00000   180.00000     1.87162
    26.50000   180.00000   180.00000     1.87151   180.00000   180.00000     1.87151
    26.60000   180.00000   180.00000     1.87140   180.00000   180.00000     1.87140
    26.70000   180.00000   180.00000     1.87129   180.00000   180.00000     1.87129
    26.80000   180.00000   180.00000     1.87119   180.00000   180.00000     1.87119
    26.90000   180.00000   360.00000     1.87108   180.00000   360.00000     1.87108
    27.00000   180.00000   360.00000     1.87097   180.00000   360.00000     1.87097
    27.10000   180.00000   360.00000     1.87086   180.00000   360.00000     1.87086
    27.20000   180.00000   360.00000     1.87075   180.00000   360.00000     1.87075
    27.30000   180.00000   360.00000     1.87064   180.00000   360.00000     1.87064
    27.40000   180.00000   360.00000     1.87054   180.00000   360.00000     1.87054
    27.50000   180.00000   360.00000     1.87043   180.00000   360.00000     1.87043
    27.60000   180.00000   180.00000     1.87032   180.00000   180.00000     1.87032
    27.70000   180.00000   360.00000     1.87021   180.00000   360.00000     1.87021
    27.80000   180.00000   360.00000     1.87010   180.00000   360.00000     1.87010
    27.90000   180.00000   360.00000     1.87000   180.00000   360.00000     1.87000
    28.00000   180.00000   180.00000     1.86989   180.00000   180.00000     1.86989
    28.10000   180.00000   180.00000     1.86978   180.00000   180.00000     1.86978
    28.20000   180.00000   360.00000     1.86967   180.00000   360.00000     1.86967
    28.30000   180.00000   180.00000     1.86956   180.00000   180.00000     1.86956
    28.40000   180.00000   180.00000     1.86945   180.00000   180.00000     1.86945
    28.50000   180.00000   360.00000     1.86935   180.00000   360.00000     1.86935
    28.60000   180.00000   360.00000     1.86924   180.00000   360.00000     1.86924
    28.70000   180.00000   360.00000     1.86913   180.00000   360.00000     1.86913
    28.80000   180.00000   180.00000     1.86902   180.00000   180.00000     1.86902
    28.90000   180.00000   360.00000     1.86891   180.00000   360.00000     1.86891
    29.00000   180.00000   180.00000     1.86880   180.00000   180.00000     1.86880
    29.10000   180.00000   180.00000     1.86869   180.00000   180.00000     1.86869
    29.20000   180.00000   360.00000     1.86859   180.00000   360.00000     1.86859
    29.30000   180.00000   360.00000     1.86848   180.00000   360.00000     1.86848
    29.40000   180.00000   360.00000     1.86837   180.00000   360.00000     1.86837
    29.50000   180.00000   180.00000     1.86826   180.00000   180.00000     1.86826
    29.60000   180.00000   360.00000     1.86815   180.00000   360.00000     1.86815
    29.70000   180.00000   180.00000     1.86804   180.00000   180.00000     1.86804
    29.80000   180.00000   180.00000     1.86793   180.00000   180.00000     1.86793
    29.90000   180.00000   180.00000     1.86783   180.00000   180.00000     1.86783
    30.00000   180.00000   360.00000     1.86772   180.00000   360.00000     1.86772
    30.10000   180.00000   180.00000     1.86761   180.00000   180.00000     1.86761
    30.20000   180.00000   360.00000     1.86750   180.00000   360.00000     1.86750
    30.30000   180.00000   180.00000     1.86739   180.00000   180.00000     1.86739
    30.40000   180.00000   360.00000     1.86728   180.00000   360.00000     1.86728
    30.50000   180.00000   360.00000     1.86717   180.00000   360.00000     1.86717
    30.60000   180.00000   360.00000     1.86706   180.00000   360.00000     1.86706
    30.70000   180.00000   180.00000     1.86696   180.00000   180.00000     1.86696
    30.80000   180.00000   180.00000     1.86685   180.00000   180.00000     1.86685
    30.90000   180.00000   360.00000     1.86674   180.00000   360.00000     1.86674
    31.00000   180.00000   360.00000     1.86663   180.00000   360.00000     1.86663
    31.10000   180.00000   360.00000     1.86652   180.00000   360.00000     1.86652
    31.20000   180.00000   180.00000     1.86641   180.00000   180.00000     1.86641
    31.30000   180.00000   180.00000     1.86630   180.00000   180.00000     1.86630
    31.40000   180.00000   180.00000     1.86619   180.00000   180.00000     1.86619
    31.50000   180.00000   360.00000     1.86608   180.00000   360.00000     1.86608
    31.60000   180.00000   360.00000     1.86598   180.00000   360.00000     1.86598
    31.70000   180.00000   360.00000     1.86587   180.00000   360.00000     1.86587
    31.80000   180.00000   360.00000     1.86576   180.00000   360.00000     1.86576
    31.90000   180.00000   360.00000     1.86565   180.00000   360.00000     1.86565
    32.00000   180.00000   180.00000     1.86554   180.00000   180.00000     1.86554
    32.10000   180.00000   180.00000     1.86543   180.00000   180.00000     1.86543
    32.20000   180.00000   360.00000     1.86532   180.00000   360.00000     1.86532
    32.30000   180.00000   360.00000     1.86521   180.00000   360.00000     1.86521
    32.40000   180.00000   360.00000     1.86510   180.00000   360.00000     1.86510
    32.50000   180.00000   180.00000     1.86499   180.00000   180.00000     1.86499
    32.60000   180.00000   360.00000     1.86489   180.00000   360.00000     1.86489
    32.70000   180.00000   360.00000     1.86478   180.00000   360.00000     1.86478
    32.80000   180.00000   360.00000     1.86467   180.00000   360.00000     1.86467
    32.90000   180.00000   180.00000     1.86456   180.00000   180.00000     1.86456
    33.00000   180.00000   180.00000     1.86445   180.00000   180.00000     1.86445
    33.10000   180.00000   360.00000     1.86434   180.00000   360.00000     1.86434
    33.20000   180.00000   180.00000     1.86423   180.00000   180.00000     1.86423
    33.30000   180.00000   180.00000     1.86412   180.00000   180.00000     1.86412
    33.40000   180.00000   180.00000     1.86401   180.00000   180.00000     1.86401
    33.50000   180.00000   180.00000     1.86390   180.00000   180.00000     1.86390
    33.60000   180.00000   180.00000     1.86379   180.00000   180.00000     1.86379
    33.70000   180.00000   180.00000     1.86368   180.00000   180.00000     1.86368
    33.80000   180.00000   360.00000     1.86357   180.00000   360.00000     1.86357
    33.90000   180.00000   180.00000     1.86346   180.00000   180.00000     1.86346
    34.00000   180.00000   360.00000     1.86336   180.00000   360.00000     1.86336
    34.10000   180.00000   360.00000     1.86325   180.00000   360.00000     1.86325
    34.20000   180.00000   360.00000     1.86314   180.00000   360.00000     1.86314
    34.30000   180.00000   360.00000     1.86303   180.00000   360.00000     1.86303
    34.40000   180.00000   180.00000     1.86292   180.00000   180.00000     1.86292
    34.50000   180.00000   180.00000     1.86281   180.00000   180.00000     1.86281
    34.60000   180.00000   360.00000     1.86270   180.00000   360.00000     1.86270
    34.70000   180.00000   360.00000     1.86259   180.00000   360.00000     1.86259
    34.80000   180.00000   360.00000     1.86248   180.00000   360.00000     1.86248
    34.90000   180.00000   180.00000     1.86237   180.00000   180.00000     1.86237
    35.00000   180.00000   180.00000     1.86226   180.00000   180.00000     1.86226
    35.10000   180.00000   360.00000     1.86215   180.00000   360.00000     1.86215
    35.20000   180.00000   180.00000     1.86204   180.00000   180.00000     1.86204
    35.30000   180.00000   180.00000     1.86193   180.00000   180.00000     1.86193
    35.40000   180.00000   360.00000     1.86182   180.00000   360.00000     1.86182
    35.50000   180.00000   180.00000     1.86171   180.00000   180.00000     1.86171
    35.60000   180.00000   180.00000     1.86160   180.00000   180.00000     1.86160
    35.70000   180.00000   180.00000     1.86149   180.00000   180.00000     1.86149
    35.80000   180.00000   360.00000     1.86138   180.00000   360.00000     1.86138
    35.90000   180.00000   180.00000     1.86127   180.00000   180.00000     1.86127
    36.00000   180.00000   180.00000     1.86116   180.00000   180.00000     1.86116
    36.10000   180.00000   180.00000     1.86105   180.00000   180.00000     1.86105
    36.20000   180.00000   360.00000     1.86094   180.00000   360.00000     1.86094
    36.30000   180.00000   360.00000     1.86083   180.00000   360.00000     1.86083
    36.40000   180.00000   360.00000     1.86072   180.00000   360.00000     1.86072
    36.50000   180.00000   360.00000     1.86061   180.00000   360.00000     1.86061
    36.60000   180.00000   360.00000     1.86050   180.00000   360.00000     1.86050
    36.70000   180.00000   180.00000     1.86039   180.00000   180.00000     1.86039
    36.80000   180.00000   180.00000     1.86028   180.00000   180.00000     1.86028
    36.90000   180.00000   180.00000     1.86017   180.00000   180.00000     1.86017
    37.00000   180.00000   360.00000     1.86006   180.00000   360.00000     1.86006
    37.10000   180.00000   180.00000     1.85995   180.00000   180.00000     1.85995
    37.20000   180.00000   360.00000     1.85984   180.00000   360.00000     1.85984
    37.30000   180.00000   360.00000     1.85973   180.00000   360.00000     1.85973
    37.40000   180.00000   360.00000     1.85962   180.00000   360.00000     1.85962
    37.50000   180.00000   180.00000     1.85951   180.00000   180.00000     1.85951
    37.60000   180.00000   180.00000     1.85940   180.00000   180.00000     1.85940
    37.70000   180.00000   360.00000     1.85929   180.00000   360.00000     1.85929
    37.80000   180.00000   180.00000     1.85918   180.00000   180.00000     1.85918
    37.90000   180.00000   180.00000     1.85907   180.00000   180.00000     1.85907
    38.00000   180.00000   180.00000     1.85896   180.00000   180.00000     1.85896
    38.10000   180.00000   180.00000     1.85885   180.00000   180.00000     1.85885
    38.20000   180.00000   180.00000     1.85874   180.00000   180.00000     1.85874
    38.30000   180.00000   360.00000     1.85863   180.00000   360.00000     1.85863
    38.40000   180.00000   180.00000     1.85852   180.00000   180.00000     1.85852
    38.50000   180.00000   360.00000     1.85841   180.00000   360.00000     1.85841
    38.60000   180.00000   180.00000     1.85830   180.00000   180.00000     1.85830
    38.70000   180.00000   180.00000     1.85819   180.00000   180.00000     1.85819
    38.80000   180.00000   180.00000     1.85808   180.00000   180.00000     1.85808
    38.90000   180.00000   180.00000     1.85797   180.00000   180.00000     1.85797
    39.00000   180.00000   180.00000     1.85786   180.00000   180.00000     1.85786
    39.10000   180.00000   180.00000     1.85775   180.00000   180.00000     1.85775
    39.20000   180.00000   360.00000     1.85764   180.00000   360.00000     1.85764
    39.30000   180.00000   360.00000     1.85753   180.00000   360.00000     1.85753
    39.40000   180.00000   180.00000     1.85742   180.00000   180.00000     1.85742
    39.50000   180.00000   180.00000     1.85731   180.00000   180.00000     1.85731
    39.60000   180.00000   360.00000     1.85720   180.00000   360.00000     1.85720
    39.70000   180.00000   360.00000     1.85709   180.00000   360.00000     1.85709
    39.80000   180.00000   180.00000     1.85698   180.00000   180.00000     1.85698
    39.90000   180.00000   180.00000     1.85687   180.00000   180.00000     1.85687
    40.00000   180.00000   180.00000     1.85676   180.00000   180.00000     1.85676
