 # applied field (T), theta (degree), phi (degree), abs for RE 1-2
     0.00000     0.24392   315.00000     4.68866     0.24392   225.00000     4.68866
     0.10000     0.48935   338.31920     4.68864     0.19752   303.74828     4.68868
     0.20000     0.76095   345.60582     4.68861     0.42184   338.28616     4.68870
     0.30000     1.08435   349.42412     4.68857     0.73524   348.49551     4.68871
     0.40000     1.36434   351.24947     4.68854     1.01217   352.12859     4.68872
     0.50000     1.64537   352.45033     4.68850     1.29144   354.19331     4.68872
     0.60000     1.92706   353.29873     4.68845     1.57183   355.52053     4.68872
     0.70000     2.25567   354.01738     4.68839     1.89913   356.56932     4.68872
     0.80000     2.53828   354.48442     4.68834     2.18065   357.21688     4.68871
     0.90000     2.82122   354.85655     4.68828     2.46248   357.71502     4.68869
     1.00000     3.10447   355.15961     4.68822     2.74457   358.10969     4.68868
     1.10000     3.43469   355.44808     4.68815     3.07334   358.47673     4.68865
     1.20000     3.71859   355.65380     4.68808     3.35592   358.73356     4.68862
     1.30000     4.00280   355.82935     4.68800     3.63871   358.94970     4.68859
     1.40000     4.33415   356.00357     4.68791     3.96830   359.16169     4.68855
     1.50000     4.61905   356.13230     4.68783     4.25158   359.31680     4.68851
     1.60000     4.90429   356.24524     4.68774     4.53511   359.45195     4.68847
     1.70000     5.23689   356.36023     4.68764     4.86559   359.58881     4.68841
     1.80000     5.52291   356.44712     4.68754     5.14969   359.69178     4.68836
     1.90000     5.80930   356.52472     4.68744     5.43406   359.78354     4.68830
     2.00000     6.14330   356.60507     4.68732     5.76559   359.87846     4.68823
     2.10000     6.43057   356.66669     4.68722     6.05063   359.95126     4.68817
     2.20000     6.76563   356.73101     4.68709     6.38297     0.02741     4.68808
     2.30000     7.05384   356.78071     4.68697     6.66875     0.08638     4.68801
     2.40000     7.39003   356.83291     4.68684     7.00199     0.14862     4.68792
     2.50000     7.67926   356.87347     4.68671     7.28857     0.19722     4.68784
     2.60000     8.01668   356.91627     4.68656     7.62280     0.24890     4.68773
     2.70000     8.30698   356.94967     4.68643     7.91027     0.28953     4.68764
     2.80000     8.64571   356.98503     4.68628     8.24557     0.33300     4.68753
     2.90000     8.98517   357.01701     4.68611     8.58149     0.37281     4.68741
     3.00000     9.27729   357.04207     4.68597     8.87046     0.40439     4.68731
     3.10000     9.61819   357.06869     4.68580     9.20759     0.43846     4.68718
     3.20000     9.95989   357.09282     4.68562     9.54541     0.46991     4.68705
     3.30000    10.25399   357.11176     4.68547     9.83608     0.49504     4.68693
     3.40000    10.59725   357.13189     4.68528    10.17524     0.52233     4.68679
     3.50000    10.94139   357.15014     4.68509    10.51517     0.54771     4.68664
     3.60000    11.28642   357.16668     4.68490    10.85589     0.57136     4.68648
     3.70000    11.63237   357.18164     4.68470    11.19742     0.59345     4.68632
     3.80000    11.97927   357.19517     4.68450    11.53979     0.61412     4.68616
     3.90000    12.32712   357.20737     4.68429    11.88303     0.63350     4.68599
     4.00000    12.67597   357.21835     4.68408    12.22716     0.65171     4.68581
     4.10000    13.07533   357.22949     4.68383    12.62102     0.67120     4.68561
     4.20000    13.42636   357.23815     4.68361    12.96714     0.68724     4.68542
     4.30000    13.77845   357.24586     4.68339    13.31422     0.70241     4.68523
     4.40000    14.18159   357.25355     4.68313    13.71156     0.71874     4.68501
     4.50000    14.53600   357.25942     4.68289    14.06080     0.73227     4.68481
     4.60000    14.94186   357.26517     4.68262    14.46067     0.74690     4.68457
     4.70000    15.29869   357.26946     4.68238    14.81218     0.75907     4.68436
     4.80000    15.70736   357.27353     4.68210    15.21470     0.77229     4.68411
     4.90000    16.11757   357.27680     4.68181    15.61868     0.78486     4.68385
     5.00000    16.52934   357.27932     4.68152    16.02417     0.79684     4.68359
     5.10000    16.94271   357.28114     4.68123    16.43118     0.80828     4.68332
     5.20000    17.35769   357.28233     4.68093    16.83977     0.81924     4.68305
     5.30000    17.77432   357.28291     4.68063    17.24995     0.82977     4.68277
     5.40000    18.24452   357.28287     4.68029    17.71287     0.84113     4.68245
     5.50000    18.66471   357.28230     4.67998    18.12655     0.85087     4.68216
     5.60000    19.13898   357.28106     4.67963    18.59349     0.86144     4.68183
     5.70000    19.61543   357.27924     4.67927    19.06262     0.87166     4.68149
     5.80000    20.09411   357.27690     4.67891    19.53398     0.88157     4.68114
     5.90000    20.57502   357.27407     4.67855    20.00761     0.89122     4.68079
     6.00000    21.11158   357.27038     4.67814    20.53613     0.90166     4.68039
     6.10000    21.65096   357.26616     4.67773    21.06756     0.91185     4.67998
     6.20000    22.19318   357.26148     4.67732    21.60193     0.92185     4.67957
     6.30000    22.73826   357.25636     4.67691    22.13930     0.93169     4.67915
     6.40000    23.34078   357.25025     4.67645    22.73352     0.94237     4.67868
     6.50000    23.94680   357.24370     4.67600    23.33146     0.95293     4.67821
     6.60000    24.61154   357.23609     4.67550    23.98771     0.96438     4.67768
     6.70000    25.28046   357.22807     4.67500    24.64850     0.97579     4.67715
     6.80000    26.00951   357.21894     4.67446    25.36922     0.98816     4.67657
     6.90000    89.33197   357.28993     4.66824    90.66803     2.71007     4.66824
     7.00000    89.33207   357.29030     4.66822    90.66793     2.70970     4.66822
     7.10000    89.33216   357.29067     4.66820    90.66784     2.70933     4.66820
     7.20000    89.33226   357.29103     4.66818    90.66774     2.70897     4.66818
     7.30000    89.33236   357.29140     4.66815    90.66764     2.70860     4.66815
     7.40000    89.33245   357.29177     4.66813    90.66755     2.70823     4.66813
     7.50000    89.33255   357.29214     4.66811    90.66745     2.70786     4.66811
     7.60000    89.33265   357.29251     4.66808    90.66735     2.70749     4.66808
     7.70000    89.33275   357.29287     4.66806    90.66725     2.70713     4.66806
     7.80000    89.33284   357.29324     4.66804    90.66716     2.70676     4.66804
     7.90000    89.33294   357.29361     4.66801    90.66706     2.70639     4.66801
     8.00000    89.33304   357.29397     4.66799    90.66696     2.70603     4.66799
     8.10000    89.33313   357.29434     4.66797    90.66687     2.70566     4.66797
     8.20000    89.33323   357.29471     4.66794    90.66677     2.70529     4.66794
     8.30000    89.33333   357.29507     4.66792    90.66667     2.70493     4.66792
     8.40000    89.33342   357.29544     4.66790    90.66658     2.70456     4.66790
     8.50000    89.33352   357.29581     4.66787    90.66648     2.70419     4.66787
     8.60000    89.33362   357.29617     4.66785    90.66638     2.70383     4.66785
     8.70000    89.33371   357.29654     4.66783    90.66629     2.70346     4.66783
     8.80000    89.33381   357.29691     4.66780    90.66619     2.70309     4.66780
     8.90000    89.33391   357.29727     4.66778    90.66609     2.70273     4.66778
     9.00000    89.33400   357.29764     4.66776    90.66600     2.70236     4.66776
     9.10000    89.33410   357.29800     4.66773    90.66590     2.70200     4.66773
     9.20000    89.33419   357.29837     4.66771    90.66581     2.70163     4.66771
     9.30000    89.33429   357.29873     4.66769    90.66571     2.70127     4.66769
     9.40000    89.33439   357.29910     4.66766    90.66561     2.70090     4.66766
     9.50000    89.33448   357.29946     4.66764    90.66552     2.70054     4.66764
     9.60000    89.33458   357.29983     4.66762    90.66542     2.70017     4.66762
     9.70000    89.33468   357.30019     4.66759    90.66532     2.69981     4.66759
     9.80000    89.33477   357.30056     4.66757    90.66523     2.69944     4.66757
     9.90000    89.33487   357.30092     4.66755    90.66513     2.69908     4.66755
    10.00000    89.33496   357.30129     4.66752    90.66504     2.69871     4.66752
    10.10000    89.33506   357.30165     4.66750    90.66494     2.69835     4.66750
    10.20000    89.33516   357.30201     4.66748    90.66484     2.69799     4.66748
    10.30000    89.33525   357.30238     4.66745    90.66475     2.69762     4.66745
    10.40000    89.33535   357.30274     4.66743    90.66465     2.69726     4.66743
    10.50000    89.33544   357.30311     4.66741    90.66456     2.69689     4.66741
    10.60000    89.33554   357.30347     4.66738    90.66446     2.69653     4.66738
    10.70000    89.33564   357.30383     4.66736    90.66436     2.69617     4.66736
    10.80000    89.33573   357.30420     4.66734    90.66427     2.69580     4.66734
    10.90000    89.33583   357.30456     4.66731    90.66417     2.69544     4.66731
    11.00000    89.33592   357.30492     4.66729    90.66408     2.69508     4.66729
    11.10000    89.33602   357.30528     4.66727    90.66398     2.69472     4.66727
    11.20000    89.33611   357.30565     4.66724    90.66389     2.69435     4.66724
    11.30000    89.33621   357.30601     4.66722    90.66379     2.69399     4.66722
    11.40000    89.33631   357.30637     4.66720    90.66369     2.69363     4.66720
    11.50000    89.33640   357.30674     4.66717    90.66360     2.69326     4.66717
    11.60000    89.33650   357.30710     4.66715    90.66350     2.69290     4.66715
    11.70000    89.33659   357.30746     4.66713    90.66341     2.69254     4.66713
    11.80000    89.33669   357.30782     4.66710    90.66331     2.69218     4.66710
    11.90000    89.33678   357.30818     4.66708    90.66322     2.69182     4.66708
    12.00000    89.33688   357.30855     4.66706    90.66312     2.69145     4.66706
    12.10000    89.33697   357.30891     4.66703    90.66303     2.69109     4.66703
    12.20000    89.33707   357.30927     4.66701    90.66293     2.69073     4.66701
    12.30000    89.33716   357.30963     4.66699    90.66284     2.69037     4.66699
    12.40000    89.33726   357.30999     4.66696    90.66274     2.69001     4.66696
    12.50000    89.33735   357.31035     4.66694    90.66265     2.68965     4.66694
    12.60000    89.33745   357.31071     4.66692    90.66255     2.68929     4.66692
    12.70000    89.33754   357.31107     4.66689    90.66246     2.68893     4.66689
    12.80000    89.33764   357.31143     4.66687    90.66236     2.68857     4.66687
    12.90000    89.33773   357.31180     4.66685    90.66227     2.68820     4.66685
    13.00000    89.33783   357.31216     4.66682    90.66217     2.68784     4.66682
    13.10000    89.33792   357.31252     4.66680    90.66208     2.68748     4.66680
    13.20000    89.33802   357.31288     4.66678    90.66198     2.68712     4.66678
    13.30000    89.33811   357.31324     4.66675    90.66189     2.68676     4.66675
    13.40000    89.33821   357.31360     4.66673    90.66179     2.68640     4.66673
    13.50000    89.33830   357.31396     4.66671    90.66170     2.68604     4.66671
    13.60000    89.33840   357.31432     4.66668    90.66160     2.68568     4.66668
    13.70000    89.33849   357.31468     4.66666    90.66151     2.68532     4.66666
    13.80000    89.33859   357.31504     4.66664    90.66141     2.68496     4.66664
    13.90000    89.33868   357.31539     4.66661    90.66132     2.68461     4.66661
    14.00000    89.33878   357.31575     4.66659    90.66122     2.68425     4.66659
    14.10000    89.33887   357.31611     4.66657    90.66113     2.68389     4.66657
    14.20000    89.33897   357.31647     4.66654    90.66103     2.68353     4.66654
    14.30000    89.33906   357.31683     4.66652    90.66094     2.68317     4.66652
    14.40000    89.33916   357.31719     4.66650    90.66084     2.68281     4.66650
    14.50000    89.33925   357.31755     4.66647    90.66075     2.68245     4.66647
    14.60000    89.33935   357.31791     4.66645    90.66065     2.68209     4.66645
    14.70000    89.33944   357.31826     4.66643    90.66056     2.68174     4.66643
    14.80000    89.33953   357.31862     4.66640    90.66047     2.68138     4.66640
    14.90000    89.33963   357.31898     4.66638    90.66037     2.68102     4.66638
    15.00000    89.33972   357.31934     4.66636    90.66028     2.68066     4.66636
    15.10000    89.33982   357.31970     4.66633    90.66018     2.68030     4.66633
    15.20000    89.33991   357.32005     4.66631    90.66009     2.67995     4.66631
    15.30000    89.34001   357.32041     4.66629    90.65999     2.67959     4.66629
    15.40000    89.34010   357.32077     4.66626    90.65990     2.67923     4.66626
    15.50000    89.34019   357.32113     4.66624    90.65981     2.67887     4.66624
    15.60000    89.34029   357.32148     4.66622    90.65971     2.67852     4.66622
    15.70000    89.34038   357.32184     4.66619    90.65962     2.67816     4.66619
    15.80000    89.34048   357.32220     4.66617    90.65952     2.67780     4.66617
    15.90000    89.34057   357.32255     4.66614    90.65943     2.67745     4.66614
    16.00000    89.34066   357.32291     4.66612    90.65934     2.67709     4.66612
    16.10000    89.34076   357.32327     4.66610    90.65924     2.67673     4.66610
    16.20000    89.34085   357.32362     4.66607    90.65915     2.67638     4.66607
    16.30000    89.34095   357.32398     4.66605    90.65905     2.67602     4.66605
    16.40000    89.34104   357.32434     4.66603    90.65896     2.67566     4.66603
    16.50000    89.34113   357.32469     4.66600    90.65887     2.67531     4.66600
    16.60000    89.34123   357.32505     4.66598    90.65877     2.67495     4.66598
    16.70000    89.34132   357.32540     4.66596    90.65868     2.67460     4.66596
    16.80000    89.34142   357.32576     4.66593    90.65858     2.67424     4.66593
    16.90000    89.34151   357.32612     4.66591    90.65849     2.67388     4.66591
    17.00000    89.34160   357.32647     4.66589    90.65840     2.67353     4.66589
    17.10000    89.34170   357.32683     4.66586    90.65830     2.67317     4.66586
    17.20000    89.34179   357.32718     4.66584    90.65821     2.67282     4.66584
    17.30000    89.34188   357.32754     4.66582    90.65812     2.67246     4.66582
    17.40000    89.34198   357.32789     4.66579    90.65802     2.67211     4.66579
    17.50000    89.34207   357.32825     4.66577    90.65793     2.67175     4.66577
    17.60000    89.34216   357.32860     4.66575    90.65784     2.67140     4.66575
    17.70000    89.34226   357.32895     4.66572    90.65774     2.67105     4.66572
    17.80000    89.34235   357.32931     4.66570    90.65765     2.67069     4.66570
    17.90000    89.34244   357.32966     4.66567    90.65756     2.67034     4.66567
    18.00000    89.34254   357.33002     4.66565    90.65746     2.66998     4.66565
    18.10000    89.34263   357.33037     4.66563    90.65737     2.66963     4.66563
    18.20000    89.34272   357.33073     4.66560    90.65728     2.66927     4.66560
    18.30000    89.34282   357.33108     4.66558    90.65718     2.66892     4.66558
    18.40000    89.34291   357.33143     4.66556    90.65709     2.66857     4.66556
    18.50000    89.34300   357.33179     4.66553    90.65700     2.66821     4.66553
    18.60000    89.34310   357.33214     4.66551    90.65690     2.66786     4.66551
    18.70000    89.34319   357.33249     4.66549    90.65681     2.66751     4.66549
    18.80000    89.34328   357.33285     4.66546    90.65672     2.66715     4.66546
    18.90000    89.34338   357.33320     4.66544    90.65662     2.66680     4.66544
    19.00000    89.34347   357.33355     4.66542    90.65653     2.66645     4.66542
    19.10000    89.34356   357.33390     4.66539    90.65644     2.66610     4.66539
    19.20000    89.34365   357.33426     4.66537    90.65635     2.66574     4.66537
    19.30000    89.34375   357.33461     4.66535    90.65625     2.66539     4.66535
    19.40000    89.34384   357.33496     4.66532    90.65616     2.66504     4.66532
    19.50000    89.34393   357.33531     4.66530    90.65607     2.66469     4.66530
    19.60000    89.34403   357.33567     4.66527    90.65597     2.66433     4.66527
    19.70000    89.34412   357.33602     4.66525    90.65588     2.66398     4.66525
    19.80000    89.34421   357.33637     4.66523    90.65579     2.66363     4.66523
    19.90000    89.34430   357.33672     4.66520    90.65570     2.66328     4.66520
    20.00000    89.34440   357.33707     4.66518    90.65560     2.66293     4.66518
    20.10000    89.34449   357.33743     4.66516    90.65551     2.66257     4.66516
    20.20000    89.34458   357.33778     4.66513    90.65542     2.66222     4.66513
    20.30000    89.34467   357.33813     4.66511    90.65533     2.66187     4.66511
    20.40000    89.34477   357.33848     4.66509    90.65523     2.66152     4.66509
    20.50000    89.34486   357.33883     4.66506    90.65514     2.66117     4.66506
    20.60000    89.34495   357.33918     4.66504    90.65505     2.66082     4.66504
    20.70000    89.34504   357.33953     4.66501    90.65496     2.66047     4.66501
    20.80000    89.34514   357.33988     4.66499    90.65486     2.66012     4.66499
    20.90000    89.34523   357.34023     4.66497    90.65477     2.65977     4.66497
    21.00000    89.34532   357.34058     4.66494    90.65468     2.65942     4.66494
    21.10000    89.34541   357.34093     4.66492    90.65459     2.65907     4.66492
    21.20000    89.34551   357.34128     4.66490    90.65449     2.65872     4.66490
    21.30000    89.34560   357.34163     4.66487    90.65440     2.65837     4.66487
    21.40000    89.34569   357.34198     4.66485    90.65431     2.65802     4.66485
    21.50000    89.34578   357.34233     4.66483    90.65422     2.65767     4.66483
    21.60000    89.34587   357.34268     4.66480    90.65413     2.65732     4.66480
    21.70000    89.34597   357.34303     4.66478    90.65403     2.65697     4.66478
    21.80000    89.34606   357.34338     4.66476    90.65394     2.65662     4.66476
    21.90000    89.34615   357.34373     4.66473    90.65385     2.65627     4.66473
    22.00000    89.34624   357.34408     4.66471    90.65376     2.65592     4.66471
    22.10000    89.34633   357.34443     4.66468    90.65367     2.65557     4.66468
    22.20000    89.34643   357.34478     4.66466    90.65357     2.65522     4.66466
    22.30000    89.34652   357.34513     4.66464    90.65348     2.65487     4.66464
    22.40000    89.34661   357.34548     4.66461    90.65339     2.65452     4.66461
    22.50000    89.34670   357.34583     4.66459    90.65330     2.65417     4.66459
    22.60000    89.34679   357.34617     4.66457    90.65321     2.65383     4.66457
    22.70000    89.34688   357.34652     4.66454    90.65312     2.65348     4.66454
    22.80000    89.34698   357.34687     4.66452    90.65302     2.65313     4.66452
    22.90000    89.34707   357.34722     4.66449    90.65293     2.65278     4.66449
    23.00000    89.34716   357.34757     4.66447    90.65284     2.65243     4.66447
    23.10000    89.34725   357.34791     4.66445    90.65275     2.65209     4.66445
    23.20000    89.34734   357.34826     4.66442    90.65266     2.65174     4.66442
    23.30000    89.34743   357.34861     4.66440    90.65257     2.65139     4.66440
    23.40000    89.34753   357.34896     4.66438    90.65247     2.65104     4.66438
    23.50000    89.34762   357.34930     4.66435    90.65238     2.65070     4.66435
    23.60000    89.34771   357.34965     4.66433    90.65229     2.65035     4.66433
    23.70000    89.34780   357.35000     4.66431    90.65220     2.65000     4.66431
    23.80000    89.34789   357.35035     4.66428    90.65211     2.64965     4.66428
    23.90000    89.34798   357.35069     4.66426    90.65202     2.64931     4.66426
    24.00000    89.34807   357.35104     4.66423    90.65193     2.64896     4.66423
    24.10000    89.34817   357.35139     4.66421    90.65183     2.64861     4.66421
    24.20000    89.34826   357.35173     4.66419    90.65174     2.64827     4.66419
    24.30000    89.34835   357.35208     4.66416    90.65165     2.64792     4.66416
    24.40000    89.34844   357.35242     4.66414    90.65156     2.64758     4.66414
    24.50000    89.34853   357.35277     4.66412    90.65147     2.64723     4.66412
    24.60000    89.34862   357.35312     4.66409    90.65138     2.64688     4.66409
    24.70000    89.34871   357.35346     4.66407    90.65129     2.64654     4.66407
    24.80000    89.34880   357.35381     4.66404    90.65120     2.64619     4.66404
    24.90000    89.34889   357.35415     4.66402    90.65111     2.64585     4.66402
    25.00000    89.34899   357.35450     4.66400    90.65101     2.64550     4.66400
    25.10000    89.34908   357.35484     4.66397    90.65092     2.64516     4.66397
    25.20000    89.34917   357.35519     4.66395    90.65083     2.64481     4.66395
    25.30000    89.34926   357.35554     4.66393    90.65074     2.64446     4.66393
    25.40000    89.34935   357.35588     4.66390    90.65065     2.64412     4.66390
    25.50000    89.34944   357.35623     4.66388    90.65056     2.64377     4.66388
    25.60000    89.34953   357.35657     4.66385    90.65047     2.64343     4.66385
    25.70000    89.34962   357.35691     4.66383    90.65038     2.64309     4.66383
    25.80000    89.34971   357.35726     4.66381    90.65029     2.64274     4.66381
    25.90000    89.34980   357.35760     4.66378    90.65020     2.64240     4.66378
    26.00000    89.34989   357.35795     4.66376    90.65011     2.64205     4.66376
    26.10000    89.34998   357.35829     4.66374    90.65002     2.64171     4.66374
    26.20000    89.35008   357.35864     4.66371    90.64992     2.64136     4.66371
    26.30000    89.35017   357.35898     4.66369    90.64983     2.64102     4.66369
    26.40000    89.35026   357.35932     4.66366    90.64974     2.64068     4.66366
    26.50000    89.35035   357.35967     4.66364    90.64965     2.64033     4.66364
    26.60000    89.35044   357.36001     4.66362    90.64956     2.63999     4.66362
    26.70000    89.35053   357.36035     4.66359    90.64947     2.63965     4.66359
    26.80000    89.35062   357.36070     4.66357    90.64938     2.63930     4.66357
    26.90000    89.35071   357.36104     4.66354    90.64929     2.63896     4.66354
    27.00000    89.35080   357.36138     4.66352    90.64920     2.63862     4.66352
    27.10000    89.35089   357.36173     4.66350    90.64911     2.63827     4.66350
    27.20000    89.35098   357.36207     4.66347    90.64902     2.63793     4.66347
    27.30000    89.35107   357.36241     4.66345    90.64893     2.63759     4.66345
    27.40000    89.35116   357.36276     4.66343    90.64884     2.63724     4.66343
    27.50000    89.35125   357.36310     4.66340    90.64875     2.63690     4.66340
    27.60000    89.35134   357.36344     4.66338    90.64866     2.63656     4.66338
    27.70000    89.35143   357.36378     4.66335    90.64857     2.63622     4.66335
    27.80000    89.35152   357.36412     4.66333    90.64848     2.63588     4.66333
    27.90000    89.35161   357.36447     4.66331    90.64839     2.63553     4.66331
    28.00000    89.35170   357.36481     4.66328    90.64830     2.63519     4.66328
    28.10000    89.35179   357.36515     4.66326    90.64821     2.63485     4.66326
    28.20000    89.35188   357.36549     4.66324    90.64812     2.63451     4.66324
    28.30000    89.35197   357.36583     4.66321    90.64803     2.63417     4.66321
    28.40000    89.35206   357.36618     4.66319    90.64794     2.63382     4.66319
    28.50000    89.35215   357.36652     4.66316    90.64785     2.63348     4.66316
    28.60000    89.35224   357.36686     4.66314    90.64776     2.63314     4.66314
    28.70000    89.35233   357.36720     4.66312    90.64767     2.63280     4.66312
    28.80000    89.35242   357.36754     4.66309    90.64758     2.63246     4.66309
    28.90000    89.35251   357.36788     4.66307    90.64749     2.63212     4.66307
    29.00000    89.35260   357.36822     4.66304    90.64740     2.63178     4.66304
    29.10000    89.35269   357.36856     4.66302    90.64731     2.63144     4.66302
    29.20000    89.35278   357.36890     4.66300    90.64722     2.63110     4.66300
    29.30000    89.35287   357.36924     4.66297    90.64713     2.63076     4.66297
    29.40000    89.35296   357.36958     4.66295    90.64704     2.63042     4.66295
    29.50000    89.35305   357.36992     4.66293    90.64695     2.63008     4.66293
    29.60000    89.35314   357.37026     4.66290    90.64686     2.62974     4.66290
    29.70000    89.35323   357.37060     4.66288    90.64677     2.62940     4.66288
    29.80000    89.35332   357.37094     4.66285    90.64668     2.62906     4.66285
    29.90000    89.35340   357.37128     4.66283    90.64660     2.62872     4.66283
    30.00000    89.35349   357.37162     4.66281    90.64651     2.62838     4.66281
    30.10000    89.35358   357.37196     4.66278    90.64642     2.62804     4.66278
    30.20000    89.35367   357.37230     4.66276    90.64633     2.62770     4.66276
    30.30000    89.35376   357.37264     4.66273    90.64624     2.62736     4.66273
    30.40000    89.35385   357.37298     4.66271    90.64615     2.62702     4.66271
    30.50000    89.35394   357.37332     4.66269    90.64606     2.62668     4.66269
    30.60000    89.35403   357.37366     4.66266    90.64597     2.62634     4.66266
    30.70000    89.35412   357.37400     4.66264    90.64588     2.62600     4.66264
    30.80000    89.35421   357.37433     4.66261    90.64579     2.62567     4.66261
    30.90000    89.35430   357.37467     4.66259    90.64570     2.62533     4.66259
    31.00000    89.35439   357.37501     4.66257    90.64561     2.62499     4.66257
    31.10000    89.35448   357.37535     4.66254    90.64552     2.62465     4.66254
    31.20000    89.35456   357.37569     4.66252    90.64544     2.62431     4.66252
    31.30000    89.35465   357.37602     4.66249    90.64535     2.62398     4.66249
    31.40000    89.35474   357.37636     4.66247    90.64526     2.62364     4.66247
    31.50000    89.35483   357.37670     4.66245    90.64517     2.62330     4.66245
    31.60000    89.35492   357.37704     4.66242    90.64508     2.62296     4.66242
    31.70000    89.35501   357.37738     4.66240    90.64499     2.62262     4.66240
    31.80000    89.35510   357.37771     4.66237    90.64490     2.62229     4.66237
    31.90000    89.35519   357.37805     4.66235    90.64481     2.62195     4.66235
    32.00000    89.35527   357.37839     4.66233    90.64473     2.62161     4.66233
    32.10000    89.35536   357.37872     4.66230    90.64464     2.62128     4.66230
    32.20000    89.35545   357.37906     4.66228    90.64455     2.62094     4.66228
    32.30000    89.35554   357.37940     4.66226    90.64446     2.62060     4.66226
    32.40000    89.35563   357.37973     4.66223    90.64437     2.62027     4.66223
    32.50000    89.35572   357.38007     4.66221    90.64428     2.61993     4.66221
    32.60000    89.35581   357.38041     4.66218    90.64419     2.61959     4.66218
    32.70000    89.35590   357.38074     4.66216    90.64410     2.61926     4.66216
    32.80000    89.35598   357.38108     4.66214    90.64402     2.61892     4.66214
    32.90000    89.35607   357.38142     4.66211    90.64393     2.61858     4.66211
    33.00000    89.35616   357.38175     4.66209    90.64384     2.61825     4.66209
    33.10000    89.35625   357.38209     4.66206    90.64375     2.61791     4.66206
    33.20000    89.35634   357.38242     4.66204    90.64366     2.61758     4.66204
    33.30000    89.35643   357.38276     4.66202    90.64357     2.61724     4.66202
    33.40000    89.35651   357.38310     4.66199    90.64349     2.61690     4.66199
    33.50000    89.35660   357.38343     4.66197    90.64340     2.61657     4.66197
    33.60000    89.35669   357.38377     4.66194    90.64331     2.61623     4.66194
    33.70000    89.35678   357.38410     4.66192    90.64322     2.61590     4.66192
    33.80000    89.35687   357.38444     4.66190    90.64313     2.61556     4.66190
    33.90000    89.35696   357.38477     4.66187    90.64304     2.61523     4.66187
    34.00000    89.35704   357.38511     4.66185    90.64296     2.61489     4.66185
    34.10000    89.35713   357.38544     4.66182    90.64287     2.61456     4.66182
    34.20000    89.35722   357.38578     4.66180    90.64278     2.61422     4.66180
    34.30000    89.35731   357.38611     4.66177    90.64269     2.61389     4.66177
    34.40000    89.35740   357.38644     4.66175    90.64260     2.61356     4.66175
    34.50000    89.35748   357.38678     4.66173    90.64252     2.61322     4.66173
    34.60000    89.35757   357.38711     4.66170    90.64243     2.61289     4.66170
    34.70000    89.35766   357.38745     4.66168    90.64234     2.61255     4.66168
    34.80000    89.35775   357.38778     4.66165    90.64225     2.61222     4.66165
    34.90000    89.35783   357.38811     4.66163    90.64217     2.61189     4.66163
    35.00000    89.35792   357.38845     4.66161    90.64208     2.61155     4.66161
    35.10000    89.35801   357.38878     4.66158    90.64199     2.61122     4.66158
    35.20000    89.35810   357.38911     4.66156    90.64190     2.61089     4.66156
    35.30000    89.35819   357.38945     4.66153    90.64181     2.61055     4.66153
    35.40000    89.35827   357.38978     4.66151    90.64173     2.61022     4.66151
    35.50000    89.35836   357.39011     4.66149    90.64164     2.60989     4.66149
    35.60000    89.35845   357.39045     4.66146    90.64155     2.60955     4.66146
    35.70000    89.35854   357.39078     4.66144    90.64146     2.60922     4.66144
    35.80000    89.35862   357.39111     4.66141    90.64138     2.60889     4.66141
    35.90000    89.35871   357.39145     4.66139    90.64129     2.60855     4.66139
    36.00000    89.35880   357.39178     4.66137    90.64120     2.60822     4.66137
    36.10000    89.35889   357.39211     4.66134    90.64111     2.60789     4.66134
    36.20000    89.35897   357.39244     4.66132    90.64103     2.60756     4.66132
    36.30000    89.35906   357.39277     4.66129    90.64094     2.60723     4.66129
    36.40000    89.35915   357.39311     4.66127    90.64085     2.60689     4.66127
    36.50000    89.35924   357.39344     4.66125    90.64076     2.60656     4.66125
    36.60000    89.35932   357.39377     4.66122    90.64068     2.60623     4.66122
    36.70000    89.35941   357.39410     4.66120    90.64059     2.60590     4.66120
    36.80000    89.35950   357.39443     4.66117    90.64050     2.60557     4.66117
    36.90000    89.35958   357.39477     4.66115    90.64042     2.60523     4.66115
    37.00000    89.35967   357.39510     4.66112    90.64033     2.60490     4.66112
    37.10000    89.35976   357.39543     4.66110    90.64024     2.60457     4.66110
    37.20000    89.35985   357.39576     4.66108    90.64015     2.60424     4.66108
    37.30000    89.35993   357.39609     4.66105    90.64007     2.60391     4.66105
    37.40000    89.36002   357.39642     4.66103    90.63998     2.60358     4.66103
    37.50000    89.36011   357.39675     4.66100    90.63989     2.60325     4.66100
    37.60000    89.36019   357.39708     4.66098    90.63981     2.60292     4.66098
    37.70000    89.36028   357.39741     4.66096    90.63972     2.60259     4.66096
    37.80000    89.36037   357.39774     4.66093    90.63963     2.60226     4.66093
    37.90000    89.36046   357.39807     4.66091    90.63954     2.60193     4.66091
    38.00000    89.36054   357.39840     4.66088    90.63946     2.60160     4.66088
    38.10000    89.36063   357.39873     4.66086    90.63937     2.60127     4.66086
    38.20000    89.36072   357.39906     4.66084    90.63928     2.60094     4.66084
    38.30000    89.36080   357.39939     4.66081    90.63920     2.60061     4.66081
    38.40000    89.36089   357.39972     4.66079    90.63911     2.60028     4.66079
    38.50000    89.36098   357.40005     4.66076    90.63902     2.59995     4.66076
    38.60000    89.36106   357.40038     4.66074    90.63894     2.59962     4.66074
    38.70000    89.36115   357.40071     4.66071    90.63885     2.59929     4.66071
    38.80000    89.36124   357.40104     4.66069    90.63876     2.59896     4.66069
    38.90000    89.36132   357.40137     4.66067    90.63868     2.59863     4.66067
    39.00000    89.36141   357.40170     4.66064    90.63859     2.59830     4.66064
    39.10000    89.36150   357.40203     4.66062    90.63850     2.59797     4.66062
    39.20000    89.36158   357.40236     4.66059    90.63842     2.59764     4.66059
    39.30000    89.36167   357.40269     4.66057    90.63833     2.59731     4.66057
    39.40000    89.36176   357.40301     4.66055    90.63824     2.59699     4.66055
    39.50000    89.36184   357.40334     4.66052    90.63816     2.59666     4.66052
    39.60000    89.36193   357.40367     4.66050    90.63807     2.59633     4.66050
    39.70000    89.36201   357.40400     4.66047    90.63799     2.59600     4.66047
    39.80000    89.36210   357.40433     4.66045    90.63790     2.59567     4.66045
    39.90000    89.36219   357.40466     4.66042    90.63781     2.59534     4.66042
    40.00000    89.36227   357.40498     4.66040    90.63773     2.59502     4.66040
