 # applied field (T), theta (degree), phi (degree), abs for RE 3-4
     0.00000     0.00000     0.00000     0.29336     0.00000     0.00000     0.29336
     0.10000     0.38285     9.91590     0.29336     0.38285    80.08410     0.29336
     0.20000     0.80800     9.64857     0.29338     0.80800    80.35143     0.29338
     0.30000     1.19152     9.74814     0.29341     1.19152    80.25186     0.29341
     0.40000     1.57567     9.80886     0.29345     1.57567    80.19114     0.29345
     0.50000     2.00304     9.75049     0.29350     2.00304    80.24951     0.29350
     0.60000     2.38919     9.81043     0.29357     2.38919    80.18957     0.29357
     0.70000     2.81932     9.79237     0.29365     2.81932    80.20763     0.29365
     0.80000     3.20838     9.85373     0.29373     3.20838    80.14627     0.29373
     0.90000    90.00000     7.96787     0.34091    90.00000    82.03213     0.34091
     1.00000    90.00000     7.97770     0.34091    90.00000    82.02230     0.34091
     1.10000    90.00000     7.98752     0.34090    90.00000    82.01248     0.34090
     1.20000    90.00000     7.99734     0.34090    90.00000    82.00266     0.34090
     1.30000    90.00000     8.00716     0.34089    90.00000    81.99284     0.34089
     1.40000    90.00000     8.01698     0.34088    90.00000    81.98302     0.34088
     1.50000    90.00000     8.02679     0.34088    90.00000    81.97321     0.34088
     1.60000    90.00000     8.03661     0.34087    90.00000    81.96339     0.34087
     1.70000    90.00000     8.04642     0.34087    90.00000    81.95358     0.34087
     1.80000    90.00000     8.05623     0.34086    90.00000    81.94377     0.34086
     1.90000    90.00000     8.06604     0.34086    90.00000    81.93396     0.34086
     2.00000    90.00000     8.07585     0.34085    90.00000    81.92415     0.34085
     2.10000    90.00000     8.08566     0.34084    90.00000    81.91434     0.34084
     2.20000    90.00000     8.09547     0.34084    90.00000    81.90453     0.34084
     2.30000    90.00000     8.10527     0.34083    90.00000    81.89473     0.34083
     2.40000    90.00000     8.11507     0.34083    90.00000    81.88493     0.34083
     2.50000    90.00000     8.12488     0.34082    90.00000    81.87512     0.34082
     2.60000    90.00000     8.13468     0.34082    90.00000    81.86532     0.34082
     2.70000    90.00000     8.14448     0.34081    90.00000    81.85552     0.34081
     2.80000    90.00000     8.15427     0.34081    90.00000    81.84573     0.34081
     2.90000    90.00000     8.16407     0.34080    90.00000    81.83593     0.34080
     3.00000    90.00000     8.17386     0.34079    90.00000    81.82614     0.34079
     3.10000    90.00000     8.18366     0.34079    90.00000    81.81634     0.34079
     3.20000    90.00000     8.19345     0.34078    90.00000    81.80655     0.34078
     3.30000    90.00000     8.20324     0.34078    90.00000    81.79676     0.34078
     3.40000    90.00000     8.21303     0.34077    90.00000    81.78697     0.34077
     3.50000    90.00000     8.22282     0.34077    90.00000    81.77718     0.34077
     3.60000    90.00000     8.23260     0.34076    90.00000    81.76740     0.34076
     3.70000    90.00000     8.24239     0.34076    90.00000    81.75761     0.34076
     3.80000    90.00000     8.25217     0.34075    90.00000    81.74783     0.34075
     3.90000    90.00000     8.26195     0.34075    90.00000    81.73805     0.34075
     4.00000    90.00000     8.27173     0.34074    90.00000    81.72827     0.34074
     4.10000    90.00000     8.28151     0.34074    90.00000    81.71849     0.34074
     4.20000    90.00000     8.29129     0.34073    90.00000    81.70871     0.34073
     4.30000    90.00000     8.30107     0.34073    90.00000    81.69893     0.34073
     4.40000    90.00000     8.31084     0.34072    90.00000    81.68916     0.34072
     4.50000    90.00000     8.32061     0.34072    90.00000    81.67939     0.34072
     4.60000    90.00000     8.33038     0.34071    90.00000    81.66962     0.34071
     4.70000    90.00000     8.34016     0.34070    90.00000    81.65984     0.34070
     4.80000    90.00000     8.34992     0.34070    90.00000    81.65008     0.34070
     4.90000    90.00000     8.35969     0.34069    90.00000    81.64031     0.34069
     5.00000    90.00000     8.36946     0.34069    90.00000    81.63054     0.34069
     5.10000    90.00000     8.37922     0.34068    90.00000    81.62078     0.34068
     5.20000    90.00000     8.38899     0.34068    90.00000    81.61101     0.34068
     5.30000    90.00000     8.39875     0.34067    90.00000    81.60125     0.34067
     5.40000    90.00000     8.40851     0.34067    90.00000    81.59149     0.34067
     5.50000    90.00000     8.41827     0.34066    90.00000    81.58173     0.34066
     5.60000    90.00000     8.42802     0.34066    90.00000    81.57198     0.34066
     5.70000    90.00000     8.43778     0.34065    90.00000    81.56222     0.34065
     5.80000    90.00000     8.44753     0.34065    90.00000    81.55247     0.34065
     5.90000    90.00000     8.45729     0.34064    90.00000    81.54271     0.34064
     6.00000    90.00000     8.46704     0.34064    90.00000    81.53296     0.34064
     6.10000    90.00000     8.47679     0.34063    90.00000    81.52321     0.34063
     6.20000    90.00000     8.48654     0.34063    90.00000    81.51346     0.34063
     6.30000    90.00000     8.49629     0.34062    90.00000    81.50371     0.34062
     6.40000    90.00000     8.50603     0.34062    90.00000    81.49397     0.34062
     6.50000    90.00000     8.51578     0.34061    90.00000    81.48422     0.34061
     6.60000    90.00000     8.52552     0.34061    90.00000    81.47448     0.34061
     6.70000    90.00000     8.53526     0.34060    90.00000    81.46474     0.34060
     6.80000    90.00000     8.54500     0.34060    90.00000    81.45500     0.34060
     6.90000    90.00000     8.55474     0.34059    90.00000    81.44526     0.34059
     7.00000    90.00000     8.56448     0.34059    90.00000    81.43552     0.34059
     7.10000    90.00000     8.57421     0.34059    90.00000    81.42579     0.34059
     7.20000    90.00000     8.58395     0.34058    90.00000    81.41605     0.34058
     7.30000    90.00000     8.59368     0.34058    90.00000    81.40632     0.34058
     7.40000    90.00000     8.60341     0.34057    90.00000    81.39659     0.34057
     7.50000    90.00000     8.61314     0.34057    90.00000    81.38686     0.34057
     7.60000    90.00000     8.62287     0.34056    90.00000    81.37713     0.34056
     7.70000    90.00000     8.63260     0.34056    90.00000    81.36740     0.34056
     7.80000    90.00000     8.64232     0.34055    90.00000    81.35768     0.34055
     7.90000    90.00000     8.65205     0.34055    90.00000    81.34795     0.34055
     8.00000    90.00000     8.66177     0.34054    90.00000    81.33823     0.34054
     8.10000    90.00000     8.67149     0.34054    90.00000    81.32851     0.34054
     8.20000    90.00000     8.68121     0.34053    90.00000    81.31879     0.34053
     8.30000    90.00000     8.69093     0.34053    90.00000    81.30907     0.34053
     8.40000    90.00000     8.70065     0.34052    90.00000    81.29935     0.34052
     8.50000    90.00000     8.71036     0.34052    90.00000    81.28964     0.34052
     8.60000    90.00000     8.72008     0.34051    90.00000    81.27992     0.34051
     8.70000    90.00000     8.72979     0.34051    90.00000    81.27021     0.34051
     8.80000    90.00000     8.73950     0.34051    90.00000    81.26050     0.34051
     8.90000    90.00000     8.74921     0.34050    90.00000    81.25079     0.34050
     9.00000    90.00000     8.75892     0.34050    90.00000    81.24108     0.34050
     9.10000    90.00000     8.76863     0.34049    90.00000    81.23137     0.34049
     9.20000    90.00000     8.77833     0.34049    90.00000    81.22167     0.34049
     9.30000    90.00000     8.78803     0.34048    90.00000    81.21197     0.34048
     9.40000    90.00000     8.79774     0.34048    90.00000    81.20226     0.34048
     9.50000    90.00000     8.80744     0.34047    90.00000    81.19256     0.34047
     9.60000    90.00000     8.81714     0.34047    90.00000    81.18286     0.34047
     9.70000    90.00000     8.82684     0.34047    90.00000    81.17316     0.34047
     9.80000    90.00000     8.83653     0.34046    90.00000    81.16347     0.34046
     9.90000    90.00000     8.84623     0.34046    90.00000    81.15377     0.34046
    10.00000    90.00000     8.85592     0.34045    90.00000    81.14408     0.34045
    10.10000    90.00000     8.86562     0.34045    90.00000    81.13438     0.34045
    10.20000    90.00000     8.87531     0.34044    90.00000    81.12469     0.34044
    10.30000    90.00000     8.88500     0.34044    90.00000    81.11500     0.34044
    10.40000    90.00000     8.89468     0.34044    90.00000    81.10532     0.34044
    10.50000    90.00000     8.90437     0.34043    90.00000    81.09563     0.34043
    10.60000    90.00000     8.91406     0.34043    90.00000    81.08594     0.34043
    10.70000    90.00000     8.92374     0.34042    90.00000    81.07626     0.34042
    10.80000    90.00000     8.93342     0.34042    90.00000    81.06658     0.34042
    10.90000    90.00000     8.94310     0.34041    90.00000    81.05690     0.34041
    11.00000    90.00000     8.95278     0.34041    90.00000    81.04722     0.34041
    11.10000    90.00000     8.96246     0.34041    90.00000    81.03754     0.34041
    11.20000    90.00000     8.97214     0.34040    90.00000    81.02786     0.34040
    11.30000    90.00000     8.98181     0.34040    90.00000    81.01819     0.34040
    11.40000    90.00000     8.99149     0.34039    90.00000    81.00851     0.34039
    11.50000    90.00000     9.00116     0.34039    90.00000    80.99884     0.34039
    11.60000    90.00000     9.01083     0.34038    90.00000    80.98917     0.34038
    11.70000    90.00000     9.02050     0.34038    90.00000    80.97950     0.34038
    11.80000    90.00000     9.03017     0.34038    90.00000    80.96983     0.34038
    11.90000    90.00000     9.03983     0.34037    90.00000    80.96017     0.34037
    12.00000    90.00000     9.04950     0.34037    90.00000    80.95050     0.34037
    12.10000    90.00000     9.05916     0.34036    90.00000    80.94084     0.34036
    12.20000    90.00000     9.06882     0.34036    90.00000    80.93118     0.34036
    12.30000    90.00000     9.07848     0.34036    90.00000    80.92152     0.34036
    12.40000    90.00000     9.08814     0.34035    90.00000    80.91186     0.34035
    12.50000    90.00000     9.09780     0.34035    90.00000    80.90220     0.34035
    12.60000    90.00000     9.10746     0.34034    90.00000    80.89254     0.34034
    12.70000    90.00000     9.11711     0.34034    90.00000    80.88289     0.34034
    12.80000    90.00000     9.12677     0.34034    90.00000    80.87323     0.34034
    12.90000    90.00000     9.13642     0.34033    90.00000    80.86358     0.34033
    13.00000    90.00000     9.14607     0.34033    90.00000    80.85393     0.34033
    13.10000    90.00000     9.15572     0.34032    90.00000    80.84428     0.34032
    13.20000    90.00000     9.16537     0.34032    90.00000    80.83463     0.34032
    13.30000    90.00000     9.17501     0.34032    90.00000    80.82499     0.34032
    13.40000    90.00000     9.18466     0.34031    90.00000    80.81534     0.34031
    13.50000    90.00000     9.19430     0.34031    90.00000    80.80570     0.34031
    13.60000    90.00000     9.20394     0.34030    90.00000    80.79606     0.34030
    13.70000    90.00000     9.21358     0.34030    90.00000    80.78642     0.34030
    13.80000    90.00000     9.22322     0.34030    90.00000    80.77678     0.34030
    13.90000    90.00000     9.23286     0.34029    90.00000    80.76714     0.34029
    14.00000    90.00000     9.24249     0.34029    90.00000    80.75751     0.34029
    14.10000    90.00000     9.25213     0.34029    90.00000    80.74787     0.34029
    14.20000    90.00000     9.26176     0.34028    90.00000    80.73824     0.34028
    14.30000    90.00000     9.27139     0.34028    90.00000    80.72861     0.34028
    14.40000    90.00000     9.28102     0.34027    90.00000    80.71898     0.34027
    14.50000    90.00000     9.29065     0.34027    90.00000    80.70935     0.34027
    14.60000    90.00000     9.30028     0.34027    90.00000    80.69972     0.34027
    14.70000    90.00000     9.30991     0.34026    90.00000    80.69009     0.34026
    14.80000    90.00000     9.31953     0.34026    90.00000    80.68047     0.34026
    14.90000    90.00000     9.32915     0.34026    90.00000    80.67085     0.34026
    15.00000    90.00000     9.33877     0.34025    90.00000    80.66123     0.34025
    15.10000    90.00000     9.34839     0.34025    90.00000    80.65161     0.34025
    15.20000    90.00000     9.35801     0.34025    90.00000    80.64199     0.34025
    15.30000    90.00000     9.36763     0.34024    90.00000    80.63237     0.34024
    15.40000    90.00000     9.37725     0.34024    90.00000    80.62275     0.34024
    15.50000    90.00000     9.38686     0.34023    90.00000    80.61314     0.34023
    15.60000    90.00000     9.39647     0.34023    90.00000    80.60353     0.34023
    15.70000    90.00000     9.40608     0.34023    90.00000    80.59392     0.34023
    15.80000    90.00000     9.41569     0.34022    90.00000    80.58431     0.34022
    15.90000    90.00000     9.42530     0.34022    90.00000    80.57470     0.34022
    16.00000    90.00000     9.43491     0.34022    90.00000    80.56509     0.34022
    16.10000    90.00000     9.44451     0.34021    90.00000    80.55549     0.34021
    16.20000    90.00000     9.45412     0.34021    90.00000    80.54588     0.34021
    16.30000    90.00000     9.46372     0.34021    90.00000    80.53628     0.34021
    16.40000    90.00000     9.47332     0.34020    90.00000    80.52668     0.34020
    16.50000    90.00000     9.48292     0.34020    90.00000    80.51708     0.34020
    16.60000    90.00000     9.49252     0.34020    90.00000    80.50748     0.34020
    16.70000    90.00000     9.50212     0.34019    90.00000    80.49788     0.34019
    16.80000    90.00000     9.51171     0.34019    90.00000    80.48829     0.34019
    16.90000    90.00000     9.52131     0.34019    90.00000    80.47869     0.34019
    17.00000    90.00000     9.53090     0.34018    90.00000    80.46910     0.34018
    17.10000    90.00000     9.54049     0.34018    90.00000    80.45951     0.34018
    17.20000    90.00000     9.55008     0.34018    90.00000    80.44992     0.34018
    17.30000    90.00000     9.55967     0.34017    90.00000    80.44033     0.34017
    17.40000    90.00000     9.56925     0.34017    90.00000    80.43075     0.34017
    17.50000    90.00000     9.57884     0.34017    90.00000    80.42116     0.34017
    17.60000    90.00000     9.58842     0.34016    90.00000    80.41158     0.34016
    17.70000    90.00000     9.59800     0.34016    90.00000    80.40200     0.34016
    17.80000    90.00000     9.60758     0.34016    90.00000    80.39242     0.34016
    17.90000    90.00000     9.61716     0.34015    90.00000    80.38284     0.34015
    18.00000    90.00000     9.62674     0.34015    90.00000    80.37326     0.34015
    18.10000    90.00000     9.63632     0.34015    90.00000    80.36368     0.34015
    18.20000    90.00000     9.64589     0.34014    90.00000    80.35411     0.34014
    18.30000    90.00000     9.65547     0.34014    90.00000    80.34453     0.34014
    18.40000    90.00000     9.66504     0.34014    90.00000    80.33496     0.34014
    18.50000    90.00000     9.67461     0.34014    90.00000    80.32539     0.34014
    18.60000    90.00000     9.68418     0.34013    90.00000    80.31582     0.34013
    18.70000    90.00000     9.69375     0.34013    90.00000    80.30625     0.34013
    18.80000    90.00000     9.70331     0.34013    90.00000    80.29669     0.34013
    18.90000    90.00000     9.71288     0.34012    90.00000    80.28712     0.34012
    19.00000    90.00000     9.72244     0.34012    90.00000    80.27756     0.34012
    19.10000    90.00000     9.73200     0.34012    90.00000    80.26800     0.34012
    19.20000    90.00000     9.74156     0.34011    90.00000    80.25844     0.34011
    19.30000    90.00000     9.75112     0.34011    90.00000    80.24888     0.34011
    19.40000    90.00000     9.76068     0.34011    90.00000    80.23932     0.34011
    19.50000    90.00000     9.77023     0.34010    90.00000    80.22977     0.34010
    19.60000    90.00000     9.77979     0.34010    90.00000    80.22021     0.34010
    19.70000    90.00000     9.78934     0.34010    90.00000    80.21066     0.34010
    19.80000    90.00000     9.79889     0.34010    90.00000    80.20111     0.34010
    19.90000    90.00000     9.80844     0.34009    90.00000    80.19156     0.34009
    20.00000    90.00000     9.81799     0.34009    90.00000    80.18201     0.34009
    20.10000    90.00000     9.82754     0.34009    90.00000    80.17246     0.34009
    20.20000    90.00000     9.83708     0.34008    90.00000    80.16292     0.34008
    20.30000    90.00000     9.84663     0.34008    90.00000    80.15337     0.34008
    20.40000    90.00000     9.85617     0.34008    90.00000    80.14383     0.34008
    20.50000    90.00000     9.86571     0.34008    90.00000    80.13429     0.34008
    20.60000    90.00000     9.87525     0.34007    90.00000    80.12475     0.34007
    20.70000    90.00000     9.88479     0.34007    90.00000    80.11521     0.34007
    20.80000    90.00000     9.89433     0.34007    90.00000    80.10567     0.34007
    20.90000    90.00000     9.90386     0.34006    90.00000    80.09614     0.34006
    21.00000    90.00000     9.91340     0.34006    90.00000    80.08660     0.34006
    21.10000    90.00000     9.92293     0.34006    90.00000    80.07707     0.34006
    21.20000    90.00000     9.93246     0.34006    90.00000    80.06754     0.34006
    21.30000    90.00000     9.94199     0.34005    90.00000    80.05801     0.34005
    21.40000    90.00000     9.95152     0.34005    90.00000    80.04848     0.34005
    21.50000    90.00000     9.96105     0.34005    90.00000    80.03895     0.34005
    21.60000    90.00000     9.97057     0.34005    90.00000    80.02943     0.34005
    21.70000    90.00000     9.98009     0.34004    90.00000    80.01991     0.34004
    21.80000    90.00000     9.98962     0.34004    90.00000    80.01038     0.34004
    21.90000    90.00000     9.99914     0.34004    90.00000    80.00086     0.34004
    22.00000    90.00000    10.00866     0.34004    90.00000    79.99134     0.34004
    22.10000    90.00000    10.01818     0.34003    90.00000    79.98182     0.34003
    22.20000    90.00000    10.02769     0.34003    90.00000    79.97231     0.34003
    22.30000    90.00000    10.03721     0.34003    90.00000    79.96279     0.34003
    22.40000    90.00000    10.04672     0.34003    90.00000    79.95328     0.34003
    22.50000    90.00000    10.05623     0.34002    90.00000    79.94377     0.34002
    22.60000    90.00000    10.06574     0.34002    90.00000    79.93426     0.34002
    22.70000    90.00000    10.07525     0.34002    90.00000    79.92475     0.34002
    22.80000    90.00000    10.08476     0.34002    90.00000    79.91524     0.34002
    22.90000    90.00000    10.09427     0.34001    90.00000    79.90573     0.34001
    23.00000    90.00000    10.10377     0.34001    90.00000    79.89623     0.34001
    23.10000    90.00000    10.11327     0.34001    90.00000    79.88673     0.34001
    23.20000    90.00000    10.12278     0.34001    90.00000    79.87722     0.34001
    23.30000    90.00000    10.13228     0.34000    90.00000    79.86772     0.34000
    23.40000    90.00000    10.14178     0.34000    90.00000    79.85822     0.34000
    23.50000    90.00000    10.15127     0.34000    90.00000    79.84873     0.34000
    23.60000    90.00000    10.16077     0.34000    90.00000    79.83923     0.34000
    23.70000    90.00000    10.17026     0.33999    90.00000    79.82974     0.33999
    23.80000    90.00000    10.17976     0.33999    90.00000    79.82024     0.33999
    23.90000    90.00000    10.18925     0.33999    90.00000    79.81075     0.33999
    24.00000    90.00000    10.19874     0.33999    90.00000    79.80126     0.33999
    24.10000    90.00000    10.20823     0.33998    90.00000    79.79177     0.33998
    24.20000    90.00000    10.21771     0.33998    90.00000    79.78229     0.33998
    24.30000    90.00000    10.22720     0.33998    90.00000    79.77280     0.33998
    24.40000    90.00000    10.23668     0.33998    90.00000    79.76332     0.33998
    24.50000    90.00000    10.24617     0.33997    90.00000    79.75383     0.33997
    24.60000    90.00000    10.25565     0.33997    90.00000    79.74435     0.33997
    24.70000    90.00000    10.26513     0.33997    90.00000    79.73487     0.33997
    24.80000    90.00000    10.27461     0.33997    90.00000    79.72539     0.33997
    24.90000    90.00000    10.28408     0.33997    90.00000    79.71592     0.33997
    25.00000    90.00000    10.29356     0.33996    90.00000    79.70644     0.33996
    25.10000    90.00000    10.30303     0.33996    90.00000    79.69697     0.33996
    25.20000    90.00000    10.31250     0.33996    90.00000    79.68750     0.33996
    25.30000    90.00000    10.32198     0.33996    90.00000    79.67802     0.33996
    25.40000    90.00000    10.33145     0.33996    90.00000    79.66855     0.33996
    25.50000    90.00000    10.34091     0.33995    90.00000    79.65909     0.33995
    25.60000    90.00000    10.35038     0.33995    90.00000    79.64962     0.33995
    25.70000    90.00000    10.35985     0.33995    90.00000    79.64015     0.33995
    25.80000    90.00000    10.36931     0.33995    90.00000    79.63069     0.33995
    25.90000    90.00000    10.37877     0.33994    90.00000    79.62123     0.33994
    26.00000    90.00000    10.38823     0.33994    90.00000    79.61177     0.33994
    26.10000    90.00000    10.39769     0.33994    90.00000    79.60231     0.33994
    26.20000    90.00000    10.40715     0.33994    90.00000    79.59285     0.33994
    26.30000    90.00000    10.41661     0.33994    90.00000    79.58339     0.33994
    26.40000    90.00000    10.42606     0.33993    90.00000    79.57394     0.33993
    26.50000    90.00000    10.43551     0.33993    90.00000    79.56449     0.33993
    26.60000    90.00000    10.44497     0.33993    90.00000    79.55503     0.33993
    26.70000    90.00000    10.45442     0.33993    90.00000    79.54558     0.33993
    26.80000    90.00000    10.46387     0.33993    90.00000    79.53613     0.33993
    26.90000    90.00000    10.47331     0.33993    90.00000    79.52669     0.33993
    27.00000    90.00000    10.48276     0.33992    90.00000    79.51724     0.33992
    27.10000    90.00000    10.49220     0.33992    90.00000    79.50780     0.33992
    27.20000    90.00000    10.50165     0.33992    90.00000    79.49835     0.33992
    27.30000    90.00000    10.51109     0.33992    90.00000    79.48891     0.33992
    27.40000    90.00000    10.52053     0.33992    90.00000    79.47947     0.33992
    27.50000    90.00000    10.52997     0.33991    90.00000    79.47003     0.33991
    27.60000    90.00000    10.53940     0.33991    90.00000    79.46060     0.33991
    27.70000    90.00000    10.54884     0.33991    90.00000    79.45116     0.33991
    27.80000    90.00000    10.55827     0.33991    90.00000    79.44173     0.33991
    27.90000    90.00000    10.56771     0.33991    90.00000    79.43229     0.33991
    28.00000    90.00000    10.57714     0.33991    90.00000    79.42286     0.33991
    28.10000    90.00000    10.58657     0.33990    90.00000    79.41343     0.33990
    28.20000    90.00000    10.59600     0.33990    90.00000    79.40400     0.33990
    28.30000    90.00000    10.60542     0.33990    90.00000    79.39458     0.33990
    28.40000    90.00000    10.61485     0.33990    90.00000    79.38515     0.33990
    28.50000    90.00000    10.62427     0.33990    90.00000    79.37573     0.33990
    28.60000    90.00000    10.63370     0.33989    90.00000    79.36630     0.33989
    28.70000    90.00000    10.64312     0.33989    90.00000    79.35688     0.33989
    28.80000    90.00000    10.65254     0.33989    90.00000    79.34746     0.33989
    28.90000    90.00000    10.66195     0.33989    90.00000    79.33805     0.33989
    29.00000    90.00000    10.67137     0.33989    90.00000    79.32863     0.33989
    29.10000    90.00000    10.68079     0.33989    90.00000    79.31921     0.33989
    29.20000    90.00000    10.69020     0.33989    90.00000    79.30980     0.33989
    29.30000    90.00000    10.69961     0.33988    90.00000    79.30039     0.33988
    29.40000    90.00000    10.70902     0.33988    90.00000    79.29098     0.33988
    29.50000    90.00000    10.71843     0.33988    90.00000    79.28157     0.33988
    29.60000    90.00000    10.72784     0.33988    90.00000    79.27216     0.33988
    29.70000    90.00000    10.73725     0.33988    90.00000    79.26275     0.33988
    29.80000    90.00000    10.74665     0.33988    90.00000    79.25335     0.33988
    29.90000    90.00000    10.75606     0.33987    90.00000    79.24394     0.33987
    30.00000    90.00000    10.76546     0.33987    90.00000    79.23454     0.33987
    30.10000    90.00000    10.77486     0.33987    90.00000    79.22514     0.33987
    30.20000    90.00000    10.78426     0.33987    90.00000    79.21574     0.33987
    30.30000    90.00000    10.79365     0.33987    90.00000    79.20635     0.33987
    30.40000    90.00000    10.80305     0.33987    90.00000    79.19695     0.33987
    30.50000    90.00000    10.81245     0.33987    90.00000    79.18755     0.33987
    30.60000    90.00000    10.82184     0.33986    90.00000    79.17816     0.33986
    30.70000    90.00000    10.83123     0.33986    90.00000    79.16877     0.33986
    30.80000    90.00000    10.84062     0.33986    90.00000    79.15938     0.33986
    30.90000    90.00000    10.85001     0.33986    90.00000    79.14999     0.33986
    31.00000    90.00000    10.85940     0.33986    90.00000    79.14060     0.33986
    31.10000    90.00000    10.86878     0.33986    90.00000    79.13122     0.33986
    31.20000    90.00000    10.87817     0.33986    90.00000    79.12183     0.33986
    31.30000    90.00000    10.88755     0.33986    90.00000    79.11245     0.33986
    31.40000    90.00000    10.89693     0.33985    90.00000    79.10307     0.33985
    31.50000    90.00000    10.90631     0.33985    90.00000    79.09369     0.33985
    31.60000    90.00000    10.91569     0.33985    90.00000    79.08431     0.33985
    31.70000    90.00000    10.92507     0.33985    90.00000    79.07493     0.33985
    31.80000    90.00000    10.93444     0.33985    90.00000    79.06556     0.33985
    31.90000    90.00000    10.94381     0.33985    90.00000    79.05619     0.33985
    32.00000    90.00000    10.95319     0.33985    90.00000    79.04681     0.33985
    32.10000    90.00000    10.96256     0.33985    90.00000    79.03744     0.33985
    32.20000    90.00000    10.97193     0.33984    90.00000    79.02807     0.33984
    32.30000    90.00000    10.98130     0.33984    90.00000    79.01870     0.33984
    32.40000    90.00000    10.99066     0.33984    90.00000    79.00934     0.33984
    32.50000    90.00000    11.00003     0.33984    90.00000    78.99997     0.33984
    32.60000    90.00000    11.00939     0.33984    90.00000    78.99061     0.33984
    32.70000    90.00000    11.01875     0.33984    90.00000    78.98125     0.33984
    32.80000    90.00000    11.02811     0.33984    90.00000    78.97189     0.33984
    32.90000    90.00000    11.03747     0.33984    90.00000    78.96253     0.33984
    33.00000    90.00000    11.04683     0.33984    90.00000    78.95317     0.33984
    33.10000    90.00000    11.05619     0.33983    90.00000    78.94381     0.33983
    33.20000    90.00000    11.06554     0.33983    90.00000    78.93446     0.33983
    33.30000    90.00000    11.07490     0.33983    90.00000    78.92510     0.33983
    33.40000    90.00000    11.08425     0.33983    90.00000    78.91575     0.33983
    33.50000    90.00000    11.09360     0.33983    90.00000    78.90640     0.33983
    33.60000    90.00000    11.10295     0.33983    90.00000    78.89705     0.33983
    33.70000    90.00000    11.11229     0.33983    90.00000    78.88771     0.33983
    33.80000    90.00000    11.12164     0.33983    90.00000    78.87836     0.33983
    33.90000    90.00000    11.13098     0.33983    90.00000    78.86902     0.33983
    34.00000    90.00000    11.14033     0.33983    90.00000    78.85967     0.33983
    34.10000    90.00000    11.14967     0.33982    90.00000    78.85033     0.33982
    34.20000    90.00000    11.15901     0.33982    90.00000    78.84099     0.33982
    34.30000    90.00000    11.16835     0.33982    90.00000    78.83165     0.33982
    34.40000    90.00000    11.17768     0.33982    90.00000    78.82232     0.33982
    34.50000    90.00000    11.18702     0.33982    90.00000    78.81298     0.33982
    34.60000    90.00000    11.19635     0.33982    90.00000    78.80365     0.33982
    34.70000    90.00000    11.20569     0.33982    90.00000    78.79431     0.33982
    34.80000    90.00000    11.21502     0.33982    90.00000    78.78498     0.33982
    34.90000    90.00000    11.22435     0.33982    90.00000    78.77565     0.33982
    35.00000    90.00000    11.23368     0.33982    90.00000    78.76632     0.33982
    35.10000    90.00000    11.24300     0.33982    90.00000    78.75700     0.33982
    35.20000    90.00000    11.25233     0.33982    90.00000    78.74767     0.33982
    35.30000    90.00000    11.26165     0.33982    90.00000    78.73835     0.33982
    35.40000    90.00000    11.27097     0.33981    90.00000    78.72903     0.33981
    35.50000    90.00000    11.28029     0.33981    90.00000    78.71971     0.33981
    35.60000    90.00000    11.28961     0.33981    90.00000    78.71039     0.33981
    35.70000    90.00000    11.29893     0.33981    90.00000    78.70107     0.33981
    35.80000    90.00000    11.30825     0.33981    90.00000    78.69175     0.33981
    35.90000    90.00000    11.31756     0.33981    90.00000    78.68244     0.33981
    36.00000    90.00000    11.32688     0.33981    90.00000    78.67312     0.33981
    36.10000    90.00000    11.33619     0.33981    90.00000    78.66381     0.33981
    36.20000    90.00000    11.34550     0.33981    90.00000    78.65450     0.33981
    36.30000    90.00000    11.35481     0.33981    90.00000    78.64519     0.33981
    36.40000    90.00000    11.36412     0.33981    90.00000    78.63588     0.33981
    36.50000    90.00000    11.37342     0.33981    90.00000    78.62658     0.33981
    36.60000    90.00000    11.38273     0.33981    90.00000    78.61727     0.33981
    36.70000    90.00000    11.39203     0.33981    90.00000    78.60797     0.33981
    36.80000    90.00000    11.40133     0.33981    90.00000    78.59867     0.33981
    36.90000    90.00000    11.41063     0.33981    90.00000    78.58937     0.33981
    37.00000    90.00000    11.41993     0.33980    90.00000    78.58007     0.33980
    37.10000    90.00000    11.42923     0.33980    90.00000    78.57077     0.33980
    37.20000    90.00000    11.43852     0.33980    90.00000    78.56148     0.33980
    37.30000    90.00000    11.44782     0.33980    90.00000    78.55218     0.33980
    37.40000    90.00000    11.45711     0.33980    90.00000    78.54289     0.33980
    37.50000    90.00000    11.46640     0.33980    90.00000    78.53360     0.33980
    37.60000    90.00000    11.47569     0.33980    90.00000    78.52431     0.33980
    37.70000    90.00000    11.48498     0.33980    90.00000    78.51502     0.33980
    37.80000    90.00000    11.49427     0.33980    90.00000    78.50573     0.33980
    37.90000    90.00000    11.50355     0.33980    90.00000    78.49645     0.33980
    38.00000    90.00000    11.51283     0.33980    90.00000    78.48717     0.33980
    38.10000    90.00000    11.52212     0.33980    90.00000    78.47788     0.33980
    38.20000    90.00000    11.53140     0.33980    90.00000    78.46860     0.33980
    38.30000    90.00000    11.54068     0.33980    90.00000    78.45932     0.33980
    38.40000    90.00000    11.54995     0.33980    90.00000    78.45005     0.33980
    38.50000    90.00000    11.55923     0.33980    90.00000    78.44077     0.33980
    38.60000    90.00000    11.56851     0.33980    90.00000    78.43149     0.33980
    38.70000    90.00000    11.57778     0.33980    90.00000    78.42222     0.33980
    38.80000    90.00000    11.58705     0.33980    90.00000    78.41295     0.33980
    38.90000    90.00000    11.59632     0.33980    90.00000    78.40368     0.33980
    39.00000    90.00000    11.60559     0.33980    90.00000    78.39441     0.33980
    39.10000    90.00000    11.61486     0.33980    90.00000    78.38514     0.33980
    39.20000    90.00000    11.62413     0.33980    90.00000    78.37587     0.33980
    39.30000    90.00000    11.63339     0.33980    90.00000    78.36661     0.33980
    39.40000    90.00000    11.64265     0.33980    90.00000    78.35735     0.33980
    39.50000    90.00000    11.65191     0.33980    90.00000    78.34809     0.33980
    39.60000    90.00000    11.66117     0.33980    90.00000    78.33883     0.33980
    39.70000    90.00000    11.67043     0.33980    90.00000    78.32957     0.33980
    39.80000    90.00000    11.67969     0.33980    90.00000    78.32031     0.33980
    39.90000    90.00000    11.68895     0.33980    90.00000    78.31105     0.33980
    40.00000    90.00000    11.69820     0.33980    90.00000    78.30180     0.33980
