 # applied field (T), theta (degree), phi (degree), abs for RE 3-4
     0.00000   180.00000   180.00000     0.05112   180.00000   180.00000     0.05112
     0.10000   178.25115   180.00000     0.05114   178.98108   180.00000     0.05113
     0.20000   176.50390   180.00000     0.05119   177.96259   180.00000     0.05115
     0.30000   174.76123   180.00000     0.05128   176.94498   180.00000     0.05117
     0.40000   172.74132   180.00000     0.05142   175.74707   180.00000     0.05122
     0.50000   171.01579   180.00000     0.05158   174.73287   180.00000     0.05128
     0.60000   169.30143   180.00000     0.05178   173.72091   180.00000     0.05134
     0.70000   167.60018   180.00000     0.05200   172.71162   180.00000     0.05142
     0.80000   165.91389   180.00000     0.05226   171.70540   180.00000     0.05150
     0.90000   164.24427   180.00000     0.05255   170.70265   180.00000     0.05160
