 # applied field (T), theta (degree), phi (degree), abs for RE 1-2
     0.00000     0.19158   315.00000     3.46358     0.19158   225.00000     3.46358
     0.10000     1.33097   352.72151     3.46347     1.05296   354.31409     3.46616
     0.20000     2.51351   355.38873     3.46321     2.23308   358.11817     3.46858
     0.30000     3.69859   356.34424     3.46280     3.41733   359.28832     3.47083
     0.40000     4.88497   356.83273     3.46225     4.60358   359.85533     3.47288
     0.50000     6.07254   357.12767     3.46156     5.79157     0.18972     3.47473
     0.60000     7.26139   357.32387     3.46073     6.98136     0.41033     3.47637
     0.70000     8.50565   357.46826     3.45973     8.22711     0.57300     3.47783
     0.80000     9.69755   357.56997     3.45865     9.42089     0.68873     3.47900
     0.90000    10.94534   357.65099     3.45738    10.67104     0.78255     3.47995
     1.00000    12.19519   357.71395     3.45599    11.92362     0.85727     3.48062
     1.10000    13.44727   357.76389     3.45448    13.17873     0.91840     3.48100
     1.20000    14.75620   357.80568     3.45278    14.49107     0.97157     3.48108
     1.30000    16.06789   357.83949     3.45097    15.80636     1.01658     3.48083
     1.40000    17.38248   357.86715     3.44905    17.12467     1.05535     3.48024
     1.50000    18.75496   357.89082     3.44695    18.50109     1.09053     3.47925
     1.60000    20.18586   357.91106     3.44466    19.93611     1.12267     3.47781
     1.70000    21.62059   357.92774     3.44229    21.37494     1.15117     3.47596
     1.80000    23.05927   357.94156     3.43983    22.81767     1.17669     3.47370
     1.90000    24.61288   357.95389     3.43711    24.37562     1.20145     3.47079
     2.00000    26.17124   357.96408     3.43432    25.93830     1.22385     3.46741
     2.10000    27.79018   357.97284     3.43139    27.56180     1.24498     3.46341
     2.20000    29.47027   357.98037     3.42830    29.24682     1.26495     3.45876
     2.30000    31.26822   357.98706     3.42499    31.05048     1.28449     3.45326
     2.40000    33.07235   357.99270     3.42167    32.86105     1.30248     3.44724
     2.50000    35.05232   357.99796     3.41804    34.84929     1.32071     3.44012
     2.60000    37.15298   358.00281     3.41423    36.96059     1.33864     3.43205
     2.70000    39.31831   358.00733     3.41038    39.13946     1.35594     3.42331
     2.80000    41.72027   358.01206     3.40622    41.56022     1.37415     3.41326
     2.90000    44.36098   358.01724     3.40180    44.22695     1.39345     3.40201
     3.00000    47.24242   358.02321     3.39719    47.14391     1.41424     3.38984
     3.10000    50.48218   358.03065     3.39229    50.43283     1.43798     3.37669
     3.20000    54.25760   358.04073     3.38697    54.27711     1.46693     3.36274
     3.30000    58.80692   358.05533     3.38112    58.92243     1.50443     3.34876
     3.40000    64.78291   358.07920     3.37433    65.03364     1.55784     3.33637
     3.50000    73.97379   358.12699     3.36566    74.41046     1.64272     3.33184
     3.60000    89.71598   358.23717     3.35575    90.28402     1.76283     3.35575
     3.70000    89.71599   358.23724     3.35587    90.28401     1.76276     3.35587
     3.80000    89.71600   358.23730     3.35598    90.28400     1.76270     3.35598
     3.90000    89.71600   358.23737     3.35610    90.28400     1.76263     3.35610
     4.00000    89.71601   358.23744     3.35621    90.28399     1.76256     3.35621
     4.10000    89.71601   358.23750     3.35633    90.28399     1.76250     3.35633
     4.20000    89.71602   358.23757     3.35644    90.28398     1.76243     3.35644
     4.30000    89.71602   358.23763     3.35656    90.28398     1.76237     3.35656
     4.40000    89.71603   358.23770     3.35667    90.28397     1.76230     3.35667
     4.50000    89.71604   358.23777     3.35679    90.28396     1.76223     3.35679
     4.60000    89.71604   358.23783     3.35690    90.28396     1.76217     3.35690
     4.70000    89.71605   358.23790     3.35702    90.28395     1.76210     3.35702
     4.80000    89.71605   358.23797     3.35713    90.28395     1.76203     3.35713
     4.90000    89.71606   358.23803     3.35725    90.28394     1.76197     3.35725
     5.00000    89.71607   358.23810     3.35736    90.28393     1.76190     3.35736
     5.10000    89.71607   358.23816     3.35748    90.28393     1.76184     3.35748
     5.20000    89.71608   358.23823     3.35759    90.28392     1.76177     3.35759
     5.30000    89.71608   358.23830     3.35771    90.28392     1.76170     3.35771
     5.40000    89.71609   358.23836     3.35782    90.28391     1.76164     3.35782
     5.50000    89.71610   358.23843     3.35794    90.28390     1.76157     3.35794
     5.60000    89.71610   358.23849     3.35805    90.28390     1.76151     3.35805
     5.70000    89.71611   358.23856     3.35817    90.28389     1.76144     3.35817
     5.80000    89.71611   358.23863     3.35828    90.28389     1.76137     3.35828
     5.90000    89.71612   358.23869     3.35840    90.28388     1.76131     3.35840
     6.00000    89.71612   358.23876     3.35851    90.28388     1.76124     3.35851
     6.10000    89.71613   358.23882     3.35863    90.28387     1.76118     3.35863
     6.20000    89.71614   358.23889     3.35874    90.28386     1.76111     3.35874
     6.30000    89.71614   358.23896     3.35886    90.28386     1.76104     3.35886
     6.40000    89.71615   358.23902     3.35897    90.28385     1.76098     3.35897
     6.50000    89.71615   358.23909     3.35909    90.28385     1.76091     3.35909
     6.60000    89.71616   358.23915     3.35920    90.28384     1.76085     3.35920
     6.70000    89.71617   358.23922     3.35931    90.28383     1.76078     3.35931
     6.80000    89.71617   358.23928     3.35943    90.28383     1.76072     3.35943
     6.90000    89.71618   358.23935     3.35954    90.28382     1.76065     3.35954
     7.00000    89.71618   358.23942     3.35966    90.28382     1.76058     3.35966
     7.10000    89.71619   358.23948     3.35977    90.28381     1.76052     3.35977
     7.20000    89.71620   358.23955     3.35989    90.28380     1.76045     3.35989
     7.30000    89.71620   358.23961     3.36000    90.28380     1.76039     3.36000
     7.40000    89.71621   358.23968     3.36012    90.28379     1.76032     3.36012
     7.50000    89.71621   358.23975     3.36023    90.28379     1.76025     3.36023
     7.60000    89.71622   358.23981     3.36034    90.28378     1.76019     3.36034
     7.70000    89.71623   358.23988     3.36046    90.28377     1.76012     3.36046
     7.80000    89.71623   358.23994     3.36057    90.28377     1.76006     3.36057
     7.90000    89.71624   358.24001     3.36069    90.28376     1.75999     3.36069
     8.00000    89.71624   358.24007     3.36080    90.28376     1.75993     3.36080
     8.10000    89.71625   358.24014     3.36092    90.28375     1.75986     3.36092
     8.20000    89.71625   358.24021     3.36103    90.28375     1.75979     3.36103
     8.30000    89.71626   358.24027     3.36114    90.28374     1.75973     3.36114
     8.40000    89.71627   358.24034     3.36126    90.28373     1.75966     3.36126
     8.50000    89.71627   358.24040     3.36137    90.28373     1.75960     3.36137
     8.60000    89.71628   358.24047     3.36149    90.28372     1.75953     3.36149
     8.70000    89.71628   358.24053     3.36160    90.28372     1.75947     3.36160
     8.80000    89.71629   358.24060     3.36171    90.28371     1.75940     3.36171
     8.90000    89.71630   358.24067     3.36183    90.28370     1.75933     3.36183
     9.00000    89.71630   358.24073     3.36194    90.28370     1.75927     3.36194
     9.10000    89.71631   358.24080     3.36205    90.28369     1.75920     3.36205
     9.20000    89.71631   358.24086     3.36217    90.28369     1.75914     3.36217
     9.30000    89.71632   358.24093     3.36228    90.28368     1.75907     3.36228
     9.40000    89.71633   358.24099     3.36240    90.28367     1.75901     3.36240
     9.50000    89.71633   358.24106     3.36251    90.28367     1.75894     3.36251
     9.60000    89.71634   358.24112     3.36262    90.28366     1.75888     3.36262
     9.70000    89.71634   358.24119     3.36274    90.28366     1.75881     3.36274
     9.80000    89.71635   358.24126     3.36285    90.28365     1.75874     3.36285
     9.90000    89.71635   358.24132     3.36296    90.28365     1.75868     3.36296
    10.00000    89.71636   358.24139     3.36308    90.28364     1.75861     3.36308
    10.10000    89.71637   358.24145     3.36319    90.28363     1.75855     3.36319
    10.20000    89.71637   358.24152     3.36330    90.28363     1.75848     3.36330
    10.30000    89.71638   358.24158     3.36342    90.28362     1.75842     3.36342
    10.40000    89.71638   358.24165     3.36353    90.28362     1.75835     3.36353
    10.50000    89.71639   358.24171     3.36364    90.28361     1.75829     3.36364
    10.60000    89.71640   358.24178     3.36376    90.28360     1.75822     3.36376
    10.70000    89.71640   358.24184     3.36387    90.28360     1.75816     3.36387
    10.80000    89.71641   358.24191     3.36398    90.28359     1.75809     3.36398
    10.90000    89.71641   358.24198     3.36410    90.28359     1.75802     3.36410
    11.00000    89.71642   358.24204     3.36421    90.28358     1.75796     3.36421
    11.10000    89.71643   358.24211     3.36432    90.28357     1.75789     3.36432
    11.20000    89.71643   358.24217     3.36444    90.28357     1.75783     3.36444
    11.30000    89.71644   358.24224     3.36455    90.28356     1.75776     3.36455
    11.40000    89.71644   358.24230     3.36466    90.28356     1.75770     3.36466
    11.50000    89.71645   358.24237     3.36478    90.28355     1.75763     3.36478
    11.60000    89.71645   358.24243     3.36489    90.28355     1.75757     3.36489
    11.70000    89.71646   358.24250     3.36500    90.28354     1.75750     3.36500
    11.80000    89.71647   358.24256     3.36512    90.28353     1.75744     3.36512
    11.90000    89.71647   358.24263     3.36523    90.28353     1.75737     3.36523
    12.00000    89.71648   358.24269     3.36534    90.28352     1.75731     3.36534
    12.10000    89.71648   358.24276     3.36545    90.28352     1.75724     3.36545
    12.20000    89.71649   358.24282     3.36557    90.28351     1.75718     3.36557
    12.30000    89.71650   358.24289     3.36568    90.28350     1.75711     3.36568
    12.40000    89.71650   358.24295     3.36579    90.28350     1.75705     3.36579
    12.50000    89.71651   358.24302     3.36590    90.28349     1.75698     3.36590
    12.60000    89.71651   358.24309     3.36602    90.28349     1.75691     3.36602
    12.70000    89.71652   358.24315     3.36613    90.28348     1.75685     3.36613
    12.80000    89.71653   358.24322     3.36624    90.28347     1.75678     3.36624
    12.90000    89.71653   358.24328     3.36636    90.28347     1.75672     3.36636
    13.00000    89.71654   358.24335     3.36647    90.28346     1.75665     3.36647
    13.10000    89.71654   358.24341     3.36658    90.28346     1.75659     3.36658
    13.20000    89.71655   358.24348     3.36669    90.28345     1.75652     3.36669
    13.30000    89.71655   358.24354     3.36681    90.28345     1.75646     3.36681
    13.40000    89.71656   358.24361     3.36692    90.28344     1.75639     3.36692
    13.50000    89.71657   358.24367     3.36703    90.28343     1.75633     3.36703
    13.60000    89.71657   358.24374     3.36714    90.28343     1.75626     3.36714
    13.70000    89.71658   358.24380     3.36726    90.28342     1.75620     3.36726
    13.80000    89.71658   358.24387     3.36737    90.28342     1.75613     3.36737
    13.90000    89.71659   358.24393     3.36748    90.28341     1.75607     3.36748
    14.00000    89.71660   358.24400     3.36759    90.28340     1.75600     3.36759
    14.10000    89.71660   358.24406     3.36770    90.28340     1.75594     3.36770
    14.20000    89.71661   358.24413     3.36782    90.28339     1.75587     3.36782
    14.30000    89.71661   358.24419     3.36793    90.28339     1.75581     3.36793
    14.40000    89.71662   358.24426     3.36804    90.28338     1.75574     3.36804
    14.50000    89.71663   358.24432     3.36815    90.28337     1.75568     3.36815
    14.60000    89.71663   358.24439     3.36827    90.28337     1.75561     3.36827
    14.70000    89.71664   358.24445     3.36838    90.28336     1.75555     3.36838
    14.80000    89.71664   358.24452     3.36849    90.28336     1.75548     3.36849
    14.90000    89.71665   358.24458     3.36860    90.28335     1.75542     3.36860
    15.00000    89.71665   358.24465     3.36871    90.28335     1.75535     3.36871
    15.10000    89.71666   358.24471     3.36883    90.28334     1.75529     3.36883
    15.20000    89.71667   358.24478     3.36894    90.28333     1.75522     3.36894
    15.30000    89.71667   358.24484     3.36905    90.28333     1.75516     3.36905
    15.40000    89.71668   358.24491     3.36916    90.28332     1.75509     3.36916
    15.50000    89.71668   358.24497     3.36927    90.28332     1.75503     3.36927
    15.60000    89.71669   358.24504     3.36938    90.28331     1.75496     3.36938
    15.70000    89.71670   358.24510     3.36950    90.28330     1.75490     3.36950
    15.80000    89.71670   358.24517     3.36961    90.28330     1.75483     3.36961
    15.90000    89.71671   358.24523     3.36972    90.28329     1.75477     3.36972
    16.00000    89.71671   358.24530     3.36983    90.28329     1.75470     3.36983
    16.10000    89.71672   358.24536     3.36994    90.28328     1.75464     3.36994
    16.20000    89.71673   358.24543     3.37005    90.28327     1.75457     3.37005
    16.30000    89.71673   358.24549     3.37017    90.28327     1.75451     3.37017
    16.40000    89.71674   358.24555     3.37028    90.28326     1.75445     3.37028
    16.50000    89.71674   358.24562     3.37039    90.28326     1.75438     3.37039
    16.60000    89.71675   358.24568     3.37050    90.28325     1.75432     3.37050
    16.70000    89.71675   358.24575     3.37061    90.28325     1.75425     3.37061
    16.80000    89.71676   358.24581     3.37072    90.28324     1.75419     3.37072
    16.90000    89.71677   358.24588     3.37084    90.28323     1.75412     3.37084
    17.00000    89.71677   358.24594     3.37095    90.28323     1.75406     3.37095
    17.10000    89.71678   358.24601     3.37106    90.28322     1.75399     3.37106
    17.20000    89.71678   358.24607     3.37117    90.28322     1.75393     3.37117
    17.30000    89.71679   358.24614     3.37128    90.28321     1.75386     3.37128
    17.40000    89.71680   358.24620     3.37139    90.28320     1.75380     3.37139
    17.50000    89.71680   358.24627     3.37150    90.28320     1.75373     3.37150
    17.60000    89.71681   358.24633     3.37161    90.28319     1.75367     3.37161
    17.70000    89.71681   358.24640     3.37173    90.28319     1.75360     3.37173
    17.80000    89.71682   358.24646     3.37184    90.28318     1.75354     3.37184
    17.90000    89.71683   358.24653     3.37195    90.28317     1.75347     3.37195
    18.00000    89.71683   358.24659     3.37206    90.28317     1.75341     3.37206
    18.10000    89.71684   358.24665     3.37217    90.28316     1.75335     3.37217
    18.20000    89.71684   358.24672     3.37228    90.28316     1.75328     3.37228
    18.30000    89.71685   358.24678     3.37239    90.28315     1.75322     3.37239
    18.40000    89.71685   358.24685     3.37250    90.28315     1.75315     3.37250
    18.50000    89.71686   358.24691     3.37261    90.28314     1.75309     3.37261
    18.60000    89.71687   358.24698     3.37272    90.28313     1.75302     3.37272
    18.70000    89.71687   358.24704     3.37283    90.28313     1.75296     3.37283
    18.80000    89.71688   358.24711     3.37295    90.28312     1.75289     3.37295
    18.90000    89.71688   358.24717     3.37306    90.28312     1.75283     3.37306
    19.00000    89.71689   358.24724     3.37317    90.28311     1.75276     3.37317
    19.10000    89.71690   358.24730     3.37328    90.28310     1.75270     3.37328
    19.20000    89.71690   358.24736     3.37339    90.28310     1.75264     3.37339
    19.30000    89.71691   358.24743     3.37350    90.28309     1.75257     3.37350
    19.40000    89.71691   358.24749     3.37361    90.28309     1.75251     3.37361
    19.50000    89.71692   358.24756     3.37372    90.28308     1.75244     3.37372
    19.60000    89.71692   358.24762     3.37383    90.28308     1.75238     3.37383
    19.70000    89.71693   358.24769     3.37394    90.28307     1.75231     3.37394
    19.80000    89.71694   358.24775     3.37405    90.28306     1.75225     3.37405
    19.90000    89.71694   358.24782     3.37416    90.28306     1.75218     3.37416
    20.00000    89.71695   358.24788     3.37427    90.28305     1.75212     3.37427
    20.10000    89.71695   358.24794     3.37438    90.28305     1.75206     3.37438
    20.20000    89.71696   358.24801     3.37449    90.28304     1.75199     3.37449
    20.30000    89.71697   358.24807     3.37460    90.28303     1.75193     3.37460
    20.40000    89.71697   358.24814     3.37471    90.28303     1.75186     3.37471
    20.50000    89.71698   358.24820     3.37482    90.28302     1.75180     3.37482
    20.60000    89.71698   358.24827     3.37494    90.28302     1.75173     3.37494
    20.70000    89.71699   358.24833     3.37505    90.28301     1.75167     3.37505
    20.80000    89.71700   358.24839     3.37516    90.28300     1.75161     3.37516
    20.90000    89.71700   358.24846     3.37527    90.28300     1.75154     3.37527
    21.00000    89.71701   358.24852     3.37538    90.28299     1.75148     3.37538
    21.10000    89.71701   358.24859     3.37549    90.28299     1.75141     3.37549
    21.20000    89.71702   358.24865     3.37560    90.28298     1.75135     3.37560
    21.30000    89.71702   358.24872     3.37571    90.28298     1.75128     3.37571
    21.40000    89.71703   358.24878     3.37582    90.28297     1.75122     3.37582
    21.50000    89.71704   358.24884     3.37593    90.28296     1.75116     3.37593
    21.60000    89.71704   358.24891     3.37604    90.28296     1.75109     3.37604
    21.70000    89.71705   358.24897     3.37615    90.28295     1.75103     3.37615
    21.80000    89.71705   358.24904     3.37626    90.28295     1.75096     3.37626
    21.90000    89.71706   358.24910     3.37637    90.28294     1.75090     3.37637
    22.00000    89.71707   358.24916     3.37648    90.28293     1.75084     3.37648
    22.10000    89.71707   358.24923     3.37659    90.28293     1.75077     3.37659
    22.20000    89.71708   358.24929     3.37670    90.28292     1.75071     3.37670
    22.30000    89.71708   358.24936     3.37681    90.28292     1.75064     3.37681
    22.40000    89.71709   358.24942     3.37691    90.28291     1.75058     3.37691
    22.50000    89.71710   358.24949     3.37702    90.28290     1.75051     3.37702
    22.60000    89.71710   358.24955     3.37713    90.28290     1.75045     3.37713
    22.70000    89.71711   358.24961     3.37724    90.28289     1.75039     3.37724
    22.80000    89.71711   358.24968     3.37735    90.28289     1.75032     3.37735
    22.90000    89.71712   358.24974     3.37746    90.28288     1.75026     3.37746
    23.00000    89.71712   358.24981     3.37757    90.28288     1.75019     3.37757
    23.10000    89.71713   358.24987     3.37768    90.28287     1.75013     3.37768
    23.20000    89.71714   358.24993     3.37779    90.28286     1.75007     3.37779
    23.30000    89.71714   358.25000     3.37790    90.28286     1.75000     3.37790
    23.40000    89.71715   358.25006     3.37801    90.28285     1.74994     3.37801
    23.50000    89.71715   358.25013     3.37812    90.28285     1.74987     3.37812
    23.60000    89.71716   358.25019     3.37823    90.28284     1.74981     3.37823
    23.70000    89.71717   358.25025     3.37834    90.28283     1.74975     3.37834
    23.80000    89.71717   358.25032     3.37845    90.28283     1.74968     3.37845
    23.90000    89.71718   358.25038     3.37856    90.28282     1.74962     3.37856
    24.00000    89.71718   358.25045     3.37867    90.28282     1.74955     3.37867
    24.10000    89.71719   358.25051     3.37878    90.28281     1.74949     3.37878
    24.20000    89.71719   358.25057     3.37888    90.28281     1.74943     3.37888
    24.30000    89.71720   358.25064     3.37899    90.28280     1.74936     3.37899
    24.40000    89.71721   358.25070     3.37910    90.28279     1.74930     3.37910
    24.50000    89.71721   358.25077     3.37921    90.28279     1.74923     3.37921
    24.60000    89.71722   358.25083     3.37932    90.28278     1.74917     3.37932
    24.70000    89.71722   358.25089     3.37943    90.28278     1.74911     3.37943
    24.80000    89.71723   358.25096     3.37954    90.28277     1.74904     3.37954
    24.90000    89.71724   358.25102     3.37965    90.28276     1.74898     3.37965
    25.00000    89.71724   358.25108     3.37976    90.28276     1.74892     3.37976
    25.10000    89.71725   358.25115     3.37987    90.28275     1.74885     3.37987
    25.20000    89.71725   358.25121     3.37997    90.28275     1.74879     3.37997
    25.30000    89.71726   358.25128     3.38008    90.28274     1.74872     3.38008
    25.40000    89.71727   358.25134     3.38019    90.28273     1.74866     3.38019
    25.50000    89.71727   358.25140     3.38030    90.28273     1.74860     3.38030
    25.60000    89.71728   358.25147     3.38041    90.28272     1.74853     3.38041
    25.70000    89.71728   358.25153     3.38052    90.28272     1.74847     3.38052
    25.80000    89.71729   358.25159     3.38063    90.28271     1.74841     3.38063
    25.90000    89.71729   358.25166     3.38074    90.28271     1.74834     3.38074
    26.00000    89.71730   358.25172     3.38084    90.28270     1.74828     3.38084
    26.10000    89.71731   358.25179     3.38095    90.28269     1.74821     3.38095
    26.20000    89.71731   358.25185     3.38106    90.28269     1.74815     3.38106
    26.30000    89.71732   358.25191     3.38117    90.28268     1.74809     3.38117
    26.40000    89.71732   358.25198     3.38128    90.28268     1.74802     3.38128
    26.50000    89.71733   358.25204     3.38139    90.28267     1.74796     3.38139
    26.60000    89.71734   358.25210     3.38150    90.28266     1.74790     3.38150
    26.70000    89.71734   358.25217     3.38160    90.28266     1.74783     3.38160
    26.80000    89.71735   358.25223     3.38171    90.28265     1.74777     3.38171
    26.90000    89.71735   358.25229     3.38182    90.28265     1.74771     3.38182
    27.00000    89.71736   358.25236     3.38193    90.28264     1.74764     3.38193
    27.10000    89.71736   358.25242     3.38204    90.28264     1.74758     3.38204
    27.20000    89.71737   358.25249     3.38215    90.28263     1.74751     3.38215
    27.30000    89.71738   358.25255     3.38225    90.28262     1.74745     3.38225
    27.40000    89.71738   358.25261     3.38236    90.28262     1.74739     3.38236
    27.50000    89.71739   358.25268     3.38247    90.28261     1.74732     3.38247
    27.60000    89.71739   358.25274     3.38258    90.28261     1.74726     3.38258
    27.70000    89.71740   358.25280     3.38269    90.28260     1.74720     3.38269
    27.80000    89.71741   358.25287     3.38279    90.28259     1.74713     3.38279
    27.90000    89.71741   358.25293     3.38290    90.28259     1.74707     3.38290
    28.00000    89.71742   358.25299     3.38301    90.28258     1.74701     3.38301
    28.10000    89.71742   358.25306     3.38312    90.28258     1.74694     3.38312
    28.20000    89.71743   358.25312     3.38323    90.28257     1.74688     3.38323
    28.30000    89.71744   358.25318     3.38333    90.28256     1.74682     3.38333
    28.40000    89.71744   358.25325     3.38344    90.28256     1.74675     3.38344
    28.50000    89.71745   358.25331     3.38355    90.28255     1.74669     3.38355
    28.60000    89.71745   358.25337     3.38366    90.28255     1.74663     3.38366
    28.70000    89.71746   358.25344     3.38377    90.28254     1.74656     3.38377
    28.80000    89.71746   358.25350     3.38387    90.28254     1.74650     3.38387
    28.90000    89.71747   358.25356     3.38398    90.28253     1.74644     3.38398
    29.00000    89.71748   358.25363     3.38409    90.28252     1.74637     3.38409
    29.10000    89.71748   358.25369     3.38420    90.28252     1.74631     3.38420
    29.20000    89.71749   358.25375     3.38430    90.28251     1.74625     3.38430
    29.30000    89.71749   358.25382     3.38441    90.28251     1.74618     3.38441
    29.40000    89.71750   358.25388     3.38452    90.28250     1.74612     3.38452
    29.50000    89.71751   358.25394     3.38463    90.28249     1.74606     3.38463
    29.60000    89.71751   358.25401     3.38473    90.28249     1.74599     3.38473
    29.70000    89.71752   358.25407     3.38484    90.28248     1.74593     3.38484
    29.80000    89.71752   358.25413     3.38495    90.28248     1.74587     3.38495
    29.90000    89.71753   358.25420     3.38506    90.28247     1.74580     3.38506
    30.00000    89.71753   358.25426     3.38516    90.28247     1.74574     3.38516
    30.10000    89.71754   358.25432     3.38527    90.28246     1.74568     3.38527
    30.20000    89.71755   358.25439     3.38538    90.28245     1.74561     3.38538
    30.30000    89.71755   358.25445     3.38549    90.28245     1.74555     3.38549
    30.40000    89.71756   358.25451     3.38559    90.28244     1.74549     3.38559
    30.50000    89.71756   358.25458     3.38570    90.28244     1.74542     3.38570
    30.60000    89.71757   358.25464     3.38581    90.28243     1.74536     3.38581
    30.70000    89.71758   358.25470     3.38592    90.28242     1.74530     3.38592
    30.80000    89.71758   358.25477     3.38602    90.28242     1.74523     3.38602
    30.90000    89.71759   358.25483     3.38613    90.28241     1.74517     3.38613
    31.00000    89.71759   358.25489     3.38624    90.28241     1.74511     3.38624
    31.10000    89.71760   358.25496     3.38634    90.28240     1.74504     3.38634
    31.20000    89.71760   358.25502     3.38645    90.28240     1.74498     3.38645
    31.30000    89.71761   358.25508     3.38656    90.28239     1.74492     3.38656
    31.40000    89.71762   358.25515     3.38667    90.28238     1.74485     3.38667
    31.50000    89.71762   358.25521     3.38677    90.28238     1.74479     3.38677
    31.60000    89.71763   358.25527     3.38688    90.28237     1.74473     3.38688
    31.70000    89.71763   358.25533     3.38699    90.28237     1.74467     3.38699
    31.80000    89.71764   358.25540     3.38709    90.28236     1.74460     3.38709
    31.90000    89.71765   358.25546     3.38720    90.28235     1.74454     3.38720
    32.00000    89.71765   358.25552     3.38731    90.28235     1.74448     3.38731
    32.10000    89.71766   358.25559     3.38741    90.28234     1.74441     3.38741
    32.20000    89.71766   358.25565     3.38752    90.28234     1.74435     3.38752
    32.30000    89.71767   358.25571     3.38763    90.28233     1.74429     3.38763
    32.40000    89.71768   358.25578     3.38773    90.28232     1.74422     3.38773
    32.50000    89.71768   358.25584     3.38784    90.28232     1.74416     3.38784
    32.60000    89.71769   358.25590     3.38795    90.28231     1.74410     3.38795
    32.70000    89.71769   358.25596     3.38805    90.28231     1.74404     3.38805
    32.80000    89.71770   358.25603     3.38816    90.28230     1.74397     3.38816
    32.90000    89.71770   358.25609     3.38827    90.28230     1.74391     3.38827
    33.00000    89.71771   358.25615     3.38837    90.28229     1.74385     3.38837
    33.10000    89.71772   358.25622     3.38848    90.28228     1.74378     3.38848
    33.20000    89.71772   358.25628     3.38859    90.28228     1.74372     3.38859
    33.30000    89.71773   358.25634     3.38869    90.28227     1.74366     3.38869
    33.40000    89.71773   358.25641     3.38880    90.28227     1.74359     3.38880
    33.50000    89.71774   358.25647     3.38891    90.28226     1.74353     3.38891
    33.60000    89.71775   358.25653     3.38901    90.28225     1.74347     3.38901
    33.70000    89.71775   358.25659     3.38912    90.28225     1.74341     3.38912
    33.80000    89.71776   358.25666     3.38922    90.28224     1.74334     3.38922
    33.90000    89.71776   358.25672     3.38933    90.28224     1.74328     3.38933
    34.00000    89.71777   358.25678     3.38944    90.28223     1.74322     3.38944
    34.10000    89.71777   358.25684     3.38954    90.28223     1.74316     3.38954
    34.20000    89.71778   358.25691     3.38965    90.28222     1.74309     3.38965
    34.30000    89.71779   358.25697     3.38976    90.28221     1.74303     3.38976
    34.40000    89.71779   358.25703     3.38986    90.28221     1.74297     3.38986
    34.50000    89.71780   358.25710     3.38997    90.28220     1.74290     3.38997
    34.60000    89.71780   358.25716     3.39007    90.28220     1.74284     3.39007
    34.70000    89.71781   358.25722     3.39018    90.28219     1.74278     3.39018
    34.80000    89.71782   358.25728     3.39029    90.28218     1.74272     3.39029
    34.90000    89.71782   358.25735     3.39039    90.28218     1.74265     3.39039
    35.00000    89.71783   358.25741     3.39050    90.28217     1.74259     3.39050
    35.10000    89.71783   358.25747     3.39060    90.28217     1.74253     3.39060
    35.20000    89.71784   358.25753     3.39071    90.28216     1.74247     3.39071
    35.30000    89.71784   358.25760     3.39082    90.28216     1.74240     3.39082
    35.40000    89.71785   358.25766     3.39092    90.28215     1.74234     3.39092
    35.50000    89.71786   358.25772     3.39103    90.28214     1.74228     3.39103
    35.60000    89.71786   358.25779     3.39113    90.28214     1.74221     3.39113
    35.70000    89.71787   358.25785     3.39124    90.28213     1.74215     3.39124
    35.80000    89.71787   358.25791     3.39134    90.28213     1.74209     3.39134
    35.90000    89.71788   358.25797     3.39145    90.28212     1.74203     3.39145
    36.00000    89.71789   358.25804     3.39156    90.28211     1.74196     3.39156
    36.10000    89.71789   358.25810     3.39166    90.28211     1.74190     3.39166
    36.20000    89.71790   358.25816     3.39177    90.28210     1.74184     3.39177
    36.30000    89.71790   358.25822     3.39187    90.28210     1.74178     3.39187
    36.40000    89.71791   358.25829     3.39198    90.28209     1.74171     3.39198
    36.50000    89.71791   358.25835     3.39208    90.28209     1.74165     3.39208
    36.60000    89.71792   358.25841     3.39219    90.28208     1.74159     3.39219
    36.70000    89.71793   358.25847     3.39229    90.28207     1.74153     3.39229
    36.80000    89.71793   358.25854     3.39240    90.28207     1.74146     3.39240
    36.90000    89.71794   358.25860     3.39250    90.28206     1.74140     3.39250
    37.00000    89.71794   358.25866     3.39261    90.28206     1.74134     3.39261
    37.10000    89.71795   358.25872     3.39271    90.28205     1.74128     3.39271
    37.20000    89.71796   358.25879     3.39282    90.28204     1.74121     3.39282
    37.30000    89.71796   358.25885     3.39293    90.28204     1.74115     3.39293
    37.40000    89.71797   358.25891     3.39303    90.28203     1.74109     3.39303
    37.50000    89.71797   358.25897     3.39314    90.28203     1.74103     3.39314
    37.60000    89.71798   358.25904     3.39324    90.28202     1.74096     3.39324
    37.70000    89.71798   358.25910     3.39335    90.28202     1.74090     3.39335
    37.80000    89.71799   358.25916     3.39345    90.28201     1.74084     3.39345
    37.90000    89.71800   358.25922     3.39356    90.28200     1.74078     3.39356
    38.00000    89.71800   358.25929     3.39366    90.28200     1.74071     3.39366
    38.10000    89.71801   358.25935     3.39377    90.28199     1.74065     3.39377
    38.20000    89.71801   358.25941     3.39387    90.28199     1.74059     3.39387
    38.30000    89.71802   358.25947     3.39398    90.28198     1.74053     3.39398
    38.40000    89.71803   358.25953     3.39408    90.28197     1.74047     3.39408
    38.50000    89.71803   358.25960     3.39419    90.28197     1.74040     3.39419
    38.60000    89.71804   358.25966     3.39429    90.28196     1.74034     3.39429
    38.70000    89.71804   358.25972     3.39440    90.28196     1.74028     3.39440
    38.80000    89.71805   358.25978     3.39450    90.28195     1.74022     3.39450
    38.90000    89.71805   358.25985     3.39461    90.28195     1.74015     3.39461
    39.00000    89.71806   358.25991     3.39471    90.28194     1.74009     3.39471
    39.10000    89.71807   358.25997     3.39481    90.28193     1.74003     3.39481
    39.20000    89.71807   358.26003     3.39492    90.28193     1.73997     3.39492
    39.30000    89.71808   358.26009     3.39502    90.28192     1.73991     3.39502
    39.40000    89.71808   358.26016     3.39513    90.28192     1.73984     3.39513
    39.50000    89.71809   358.26022     3.39523    90.28191     1.73978     3.39523
    39.60000    89.71810   358.26028     3.39534    90.28190     1.73972     3.39534
    39.70000    89.71810   358.26034     3.39544    90.28190     1.73966     3.39544
    39.80000    89.71811   358.26041     3.39555    90.28189     1.73959     3.39555
    39.90000    89.71811   358.26047     3.39565    90.28189     1.73953     3.39565
    40.00000    89.71812   358.26053     3.39576    90.28188     1.73947     3.39576
