 # applied field (T), theta (degree), phi (degree), abs [muB/unitcell], abs [T]
       0.00000000       0.00000000       0.00000000      36.72364572       1.22766416
       0.10000000       1.25857476     360.00000000      36.72360428       1.22766278
       0.20000000       2.45998229     360.00000000      36.72348809       1.22765889
       0.30000000       3.71858400     360.00000000      36.72328585       1.22765213
       0.40000000       4.97721316     360.00000000      36.72300238       1.22764266
       0.50000000       6.23587883     360.00000000      36.72263900       1.22763051
       0.60000000       7.49458989     360.00000000      36.72219734       1.22761574
       0.70000000       8.75335494     360.00000000      36.72167942       1.22759843
       0.80000000      10.01218232     360.00000000      36.72108757       1.22757864
       0.90000000      11.32827290     360.00000000      36.72039044       1.22755534
       1.00000000      12.64444931     360.00000000      36.71961832       1.22752953
       1.10000000      13.96071978     360.00000000      36.71877494       1.22750133
       1.20000000      15.27709199     360.00000000      36.71786438       1.22747089
       1.30000000      16.65078444     360.00000000      36.71684419       1.22743679
       1.40000000      18.02460315     360.00000000      36.71576032       1.22740056
       1.50000000      19.39855475     360.00000000      36.71461830       1.22736238
       1.60000000      20.82987427     360.00000000      36.71336936       1.22732063
       1.70000000      22.31858650     360.00000000      36.71201305       1.22727529
       1.80000000      23.80747380     360.00000000      36.71060926       1.22722836
       1.90000000      25.35379092     360.00000000      36.70910557       1.22717809
       2.00000000      26.95756358     360.00000000      36.70750595       1.22712461
       2.10000000      28.56155054     360.00000000      36.70587902       1.22707023
       2.20000000      30.28030238     360.00000000      36.70410782       1.22701102
       2.30000000      31.99930065     360.00000000      36.70232765       1.22695150
       2.40000000      33.83312718     360.00000000      36.70042273       1.22688782
       2.50000000      35.78182929     360.00000000      36.69840709       1.22682044
       2.60000000      37.78814077     360.00000000      36.69636143       1.22675206
       2.70000000      39.96671695     360.00000000      36.69418293       1.22667923
       2.80000000      42.26029191     360.00000000      36.69196214       1.22660499
       2.90000000      44.72623408     360.00000000      36.68967445       1.22652851
       3.00000000      47.47928808     360.00000000      36.68725925       1.22644777
       3.10000000      50.46217901     360.00000000      36.68483874       1.22636685
       3.20000000      53.90440591     360.00000000      36.68231108       1.22628235
       3.30000000      57.92080720     360.00000000      36.67974445       1.22619655
       3.40000000      62.85572717     360.00000000      36.67715487       1.22610998
       3.50000000      69.56997955     360.00000000      36.67456560       1.22602342
       3.60000000      82.71183112     360.00000000      36.67201846       1.22593827
       3.70000000      90.00000000     360.00000000      36.67190750       1.22593457
       3.80000000      90.00000000     360.00000000      36.67215769       1.22594293
       3.90000000      90.00000000     360.00000000      36.67240786       1.22595129
       4.00000000      90.00000000     360.00000000      36.67265801       1.22595965
       4.10000000      90.00000000     360.00000000      36.67290813       1.22596802
       4.20000000      90.00000000     360.00000000      36.67315823       1.22597638
       4.30000000      90.00000000     360.00000000      36.67340831       1.22598474
       4.40000000      90.00000000     360.00000000      36.67365837       1.22599310
       4.50000000      90.00000000     360.00000000      36.67390840       1.22600145
       4.60000000      90.00000000     360.00000000      36.67415842       1.22600981
       4.70000000      90.00000000     360.00000000      36.67440841       1.22601817
       4.80000000      90.00000000     360.00000000      36.67465838       1.22602653
       4.90000000      90.00000000     360.00000000      36.67490832       1.22603488
       5.00000000      90.00000000     360.00000000      36.67515825       1.22604324
       5.10000000      90.00000000     360.00000000      36.67540815       1.22605159
       5.20000000      90.00000000     360.00000000      36.67565804       1.22605994
       5.30000000      90.00000000     360.00000000      36.67590790       1.22606830
       5.40000000      90.00000000     360.00000000      36.67615773       1.22607665
       5.50000000      90.00000000     360.00000000      36.67640755       1.22608500
       5.60000000      90.00000000     360.00000000      36.67665734       1.22609335
       5.70000000      90.00000000     360.00000000      36.67690712       1.22610170
       5.80000000      90.00000000     360.00000000      36.67715687       1.22611005
       5.90000000      90.00000000     360.00000000      36.67740660       1.22611840
       6.00000000      90.00000000     360.00000000      36.67765631       1.22612675
       6.10000000      90.00000000     360.00000000      36.67790599       1.22613509
       6.20000000      90.00000000     360.00000000      36.67815565       1.22614344
       6.30000000      90.00000000     360.00000000      36.67840530       1.22615178
       6.40000000      90.00000000     360.00000000      36.67865492       1.22616013
       6.50000000      90.00000000     360.00000000      36.67890451       1.22616847
       6.60000000      90.00000000     360.00000000      36.67915409       1.22617682
       6.70000000      90.00000000     360.00000000      36.67940365       1.22618516
       6.80000000      90.00000000     360.00000000      36.67965318       1.22619350
       6.90000000      90.00000000     360.00000000      36.67990269       1.22620184
       7.00000000      90.00000000     360.00000000      36.68015218       1.22621018
       7.10000000      90.00000000     360.00000000      36.68040165       1.22621852
       7.20000000      90.00000000     360.00000000      36.68065109       1.22622686
       7.30000000      90.00000000     360.00000000      36.68090052       1.22623520
       7.40000000      90.00000000     360.00000000      36.68114992       1.22624354
       7.50000000      90.00000000     360.00000000      36.68139930       1.22625187
       7.60000000      90.00000000     360.00000000      36.68164866       1.22626021
       7.70000000      90.00000000     360.00000000      36.68189800       1.22626855
       7.80000000      90.00000000     360.00000000      36.68214732       1.22627688
       7.90000000      90.00000000     360.00000000      36.68239661       1.22628521
       8.00000000      90.00000000     360.00000000      36.68264588       1.22629355
       8.10000000      90.00000000     360.00000000      36.68289514       1.22630188
       8.20000000      90.00000000     360.00000000      36.68314437       1.22631021
       8.30000000      90.00000000     360.00000000      36.68339357       1.22631854
       8.40000000      90.00000000     360.00000000      36.68364276       1.22632687
       8.50000000      90.00000000     360.00000000      36.68389193       1.22633520
       8.60000000      90.00000000     360.00000000      36.68414107       1.22634353
       8.70000000      90.00000000     360.00000000      36.68439019       1.22635186
       8.80000000      90.00000000     360.00000000      36.68463929       1.22636019
       8.90000000      90.00000000     360.00000000      36.68488837       1.22636851
       9.00000000      90.00000000     360.00000000      36.68513743       1.22637684
       9.10000000      90.00000000     360.00000000      36.68538646       1.22638516
       9.20000000      90.00000000     360.00000000      36.68563548       1.22639349
       9.30000000      90.00000000     360.00000000      36.68588447       1.22640181
       9.40000000      90.00000000     360.00000000      36.68613344       1.22641014
       9.50000000      90.00000000     360.00000000      36.68638239       1.22641846
       9.60000000      90.00000000     360.00000000      36.68663132       1.22642678
       9.70000000      90.00000000     360.00000000      36.68688022       1.22643510
       9.80000000      90.00000000     360.00000000      36.68712911       1.22644342
       9.90000000      90.00000000     360.00000000      36.68737797       1.22645174
      10.00000000      90.00000000     360.00000000      36.68762681       1.22646006
      10.10000000      90.00000000     360.00000000      36.68787563       1.22646838
      10.20000000      90.00000000     360.00000000      36.68812443       1.22647669
      10.30000000      90.00000000     360.00000000      36.68837321       1.22648501
      10.40000000      90.00000000     360.00000000      36.68862197       1.22649333
      10.50000000      90.00000000     360.00000000      36.68887070       1.22650164
      10.60000000      90.00000000     360.00000000      36.68911942       1.22650996
      10.70000000      90.00000000     360.00000000      36.68936811       1.22651827
      10.80000000      90.00000000     360.00000000      36.68961678       1.22652658
      10.90000000      90.00000000     360.00000000      36.68986543       1.22653489
      11.00000000      90.00000000     360.00000000      36.69011405       1.22654321
      11.10000000      90.00000000     360.00000000      36.69036266       1.22655152
      11.20000000      90.00000000     360.00000000      36.69061125       1.22655983
      11.30000000      90.00000000     360.00000000      36.69085981       1.22656814
      11.40000000      90.00000000     360.00000000      36.69110835       1.22657645
      11.50000000      90.00000000     360.00000000      36.69135687       1.22658475
      11.60000000      90.00000000     360.00000000      36.69160537       1.22659306
      11.70000000      90.00000000     360.00000000      36.69185385       1.22660137
      11.80000000      90.00000000     360.00000000      36.69210231       1.22660967
      11.90000000      90.00000000     360.00000000      36.69235074       1.22661798
      12.00000000      90.00000000     360.00000000      36.69259916       1.22662628
      12.10000000      90.00000000     360.00000000      36.69284755       1.22663459
      12.20000000      90.00000000     360.00000000      36.69309592       1.22664289
      12.30000000      90.00000000     360.00000000      36.69334427       1.22665119
      12.40000000      90.00000000     360.00000000      36.69359260       1.22665949
      12.50000000      90.00000000     360.00000000      36.69384091       1.22666779
      12.60000000      90.00000000     360.00000000      36.69408920       1.22667609
      12.70000000      90.00000000     360.00000000      36.69433747       1.22668439
      12.80000000      90.00000000     360.00000000      36.69458571       1.22669269
      12.90000000      90.00000000     360.00000000      36.69483393       1.22670099
      13.00000000      90.00000000     360.00000000      36.69508213       1.22670929
      13.10000000      90.00000000     360.00000000      36.69533032       1.22671759
      13.20000000      90.00000000     360.00000000      36.69557848       1.22672588
      13.30000000      90.00000000     360.00000000      36.69582661       1.22673418
      13.40000000      90.00000000     360.00000000      36.69607473       1.22674247
      13.50000000      90.00000000     360.00000000      36.69632283       1.22675076
      13.60000000      90.00000000     360.00000000      36.69657090       1.22675906
      13.70000000      90.00000000     360.00000000      36.69681896       1.22676735
      13.80000000      90.00000000     360.00000000      36.69706699       1.22677564
      13.90000000      90.00000000     360.00000000      36.69731500       1.22678393
      14.00000000      90.00000000     360.00000000      36.69756299       1.22679222
      14.10000000      90.00000000     360.00000000      36.69781096       1.22680051
      14.20000000      90.00000000     360.00000000      36.69805891       1.22680880
      14.30000000      90.00000000     360.00000000      36.69830683       1.22681709
      14.40000000      90.00000000     360.00000000      36.69855474       1.22682538
      14.50000000      90.00000000     360.00000000      36.69880263       1.22683366
      14.60000000      90.00000000     360.00000000      36.69905049       1.22684195
      14.70000000      90.00000000     360.00000000      36.69929833       1.22685024
      14.80000000      90.00000000     360.00000000      36.69954615       1.22685852
      14.90000000      90.00000000     360.00000000      36.69979395       1.22686680
      15.00000000      90.00000000     360.00000000      36.70004173       1.22687509
      15.10000000      90.00000000     360.00000000      36.70028949       1.22688337
      15.20000000      90.00000000     360.00000000      36.70053723       1.22689165
      15.30000000      90.00000000     360.00000000      36.70078495       1.22689993
      15.40000000      90.00000000     360.00000000      36.70103264       1.22690821
      15.50000000      90.00000000     360.00000000      36.70128032       1.22691649
      15.60000000      90.00000000     360.00000000      36.70152797       1.22692477
      15.70000000      90.00000000     360.00000000      36.70177560       1.22693305
      15.80000000      90.00000000     360.00000000      36.70202321       1.22694133
      15.90000000      90.00000000     360.00000000      36.70227080       1.22694960
      16.00000000      90.00000000     360.00000000      36.70251837       1.22695788
      16.10000000      90.00000000     360.00000000      36.70276592       1.22696616
      16.20000000      90.00000000     360.00000000      36.70301345       1.22697443
      16.30000000      90.00000000     360.00000000      36.70326096       1.22698270
      16.40000000      90.00000000     360.00000000      36.70350844       1.22699098
      16.50000000      90.00000000     360.00000000      36.70375591       1.22699925
      16.60000000      90.00000000     360.00000000      36.70400335       1.22700752
      16.70000000      90.00000000     360.00000000      36.70425078       1.22701579
      16.80000000      90.00000000     360.00000000      36.70449818       1.22702406
      16.90000000      90.00000000     360.00000000      36.70474556       1.22703233
      17.00000000      90.00000000     360.00000000      36.70499292       1.22704060
      17.10000000      90.00000000     360.00000000      36.70524026       1.22704887
      17.20000000      90.00000000     360.00000000      36.70548758       1.22705714
      17.30000000      90.00000000     360.00000000      36.70573488       1.22706541
      17.40000000      90.00000000     360.00000000      36.70598215       1.22707367
      17.50000000      90.00000000     360.00000000      36.70622941       1.22708194
      17.60000000      90.00000000     360.00000000      36.70647665       1.22709020
      17.70000000      90.00000000     360.00000000      36.70672386       1.22709847
      17.80000000      90.00000000     360.00000000      36.70697105       1.22710673
      17.90000000      90.00000000     360.00000000      36.70721823       1.22711500
      18.00000000      90.00000000     360.00000000      36.70746538       1.22712326
      18.10000000      90.00000000     360.00000000      36.70771251       1.22713152
      18.20000000      90.00000000     360.00000000      36.70795962       1.22713978
      18.30000000      90.00000000     360.00000000      36.70820671       1.22714804
      18.40000000      90.00000000     360.00000000      36.70845378       1.22715630
      18.50000000      90.00000000     360.00000000      36.70870083       1.22716456
      18.60000000      90.00000000     360.00000000      36.70894786       1.22717282
      18.70000000      90.00000000     360.00000000      36.70919487       1.22718107
      18.80000000      90.00000000     360.00000000      36.70944185       1.22718933
      18.90000000      90.00000000     360.00000000      36.70968882       1.22719759
      19.00000000      90.00000000     360.00000000      36.70993576       1.22720584
      19.10000000      90.00000000     360.00000000      36.71018269       1.22721410
      19.20000000      90.00000000     360.00000000      36.71042959       1.22722235
      19.30000000      90.00000000     360.00000000      36.71067647       1.22723060
      19.40000000      90.00000000     360.00000000      36.71092334       1.22723886
      19.50000000      90.00000000     360.00000000      36.71117018       1.22724711
      19.60000000      90.00000000     360.00000000      36.71141700       1.22725536
      19.70000000      90.00000000     360.00000000      36.71166380       1.22726361
      19.80000000      90.00000000     360.00000000      36.71191058       1.22727186
      19.90000000      90.00000000     360.00000000      36.71215734       1.22728011
      20.00000000      90.00000000     360.00000000      36.71240408       1.22728836
      20.10000000      90.00000000     360.00000000      36.71265079       1.22729661
      20.20000000      90.00000000     360.00000000      36.71289749       1.22730485
      20.30000000      90.00000000     360.00000000      36.71314417       1.22731310
      20.40000000      90.00000000     360.00000000      36.71339082       1.22732134
      20.50000000      90.00000000     360.00000000      36.71363746       1.22732959
      20.60000000      90.00000000     360.00000000      36.71388407       1.22733783
      20.70000000      90.00000000     360.00000000      36.71413067       1.22734608
      20.80000000      90.00000000     360.00000000      36.71437724       1.22735432
      20.90000000      90.00000000     360.00000000      36.71462380       1.22736256
      21.00000000      90.00000000     360.00000000      36.71487033       1.22737080
      21.10000000      90.00000000     360.00000000      36.71511684       1.22737904
      21.20000000      90.00000000     360.00000000      36.71536333       1.22738728
      21.30000000      90.00000000     360.00000000      36.71560980       1.22739552
      21.40000000      90.00000000     360.00000000      36.71585626       1.22740376
      21.50000000      90.00000000     360.00000000      36.71610269       1.22741200
      21.60000000      90.00000000     360.00000000      36.71634910       1.22742024
      21.70000000      90.00000000     360.00000000      36.71659548       1.22742848
      21.80000000      90.00000000     360.00000000      36.71684185       1.22743671
      21.90000000      90.00000000     360.00000000      36.71708820       1.22744495
      22.00000000      90.00000000     360.00000000      36.71733453       1.22745318
      22.10000000      90.00000000     360.00000000      36.71758084       1.22746142
      22.20000000      90.00000000     360.00000000      36.71782712       1.22746965
      22.30000000      90.00000000     360.00000000      36.71807339       1.22747788
      22.40000000      90.00000000     360.00000000      36.71831964       1.22748611
      22.50000000      90.00000000     360.00000000      36.71856586       1.22749434
      22.60000000      90.00000000     360.00000000      36.71881207       1.22750258
      22.70000000      90.00000000     360.00000000      36.71905825       1.22751081
      22.80000000      90.00000000     360.00000000      36.71930442       1.22751903
      22.90000000      90.00000000     360.00000000      36.71955056       1.22752726
      23.00000000      90.00000000     360.00000000      36.71979669       1.22753549
      23.10000000      90.00000000     360.00000000      36.72004279       1.22754372
      23.20000000      90.00000000     360.00000000      36.72028888       1.22755194
      23.30000000      90.00000000     360.00000000      36.72053494       1.22756017
      23.40000000      90.00000000     360.00000000      36.72078098       1.22756840
      23.50000000      90.00000000     360.00000000      36.72102700       1.22757662
      23.60000000      90.00000000     360.00000000      36.72127301       1.22758484
      23.70000000      90.00000000     360.00000000      36.72151899       1.22759307
      23.80000000      90.00000000     360.00000000      36.72176495       1.22760129
      23.90000000      90.00000000     360.00000000      36.72201089       1.22760951
      24.00000000      90.00000000     360.00000000      36.72225681       1.22761773
      24.10000000      90.00000000     360.00000000      36.72250271       1.22762595
      24.20000000      90.00000000     360.00000000      36.72274859       1.22763417
      24.30000000      90.00000000     360.00000000      36.72299445       1.22764239
      24.40000000      90.00000000     360.00000000      36.72324029       1.22765061
      24.50000000      90.00000000     360.00000000      36.72348611       1.22765883
      24.60000000      90.00000000     360.00000000      36.72373191       1.22766704
      24.70000000      90.00000000     360.00000000      36.72397769       1.22767526
      24.80000000      90.00000000     360.00000000      36.72422345       1.22768348
      24.90000000      90.00000000     360.00000000      36.72446919       1.22769169
      25.00000000      90.00000000     360.00000000      36.72471491       1.22769991
      25.10000000      90.00000000     360.00000000      36.72496061       1.22770812
      25.20000000      90.00000000     360.00000000      36.72520629       1.22771633
      25.30000000      90.00000000     360.00000000      36.72545194       1.22772455
      25.40000000      90.00000000     360.00000000      36.72569758       1.22773276
      25.50000000      90.00000000     360.00000000      36.72594320       1.22774097
      25.60000000      90.00000000     360.00000000      36.72618880       1.22774918
      25.70000000      90.00000000     360.00000000      36.72643437       1.22775739
      25.80000000      90.00000000     360.00000000      36.72667993       1.22776560
      25.90000000      90.00000000     360.00000000      36.72692547       1.22777380
      26.00000000      90.00000000     360.00000000      36.72717099       1.22778201
      26.10000000      90.00000000     360.00000000      36.72741648       1.22779022
      26.20000000      90.00000000     360.00000000      36.72766196       1.22779843
      26.30000000      90.00000000     360.00000000      36.72790742       1.22780663
      26.40000000      90.00000000     360.00000000      36.72815286       1.22781484
      26.50000000      90.00000000     360.00000000      36.72839827       1.22782304
      26.60000000      90.00000000     360.00000000      36.72864367       1.22783124
      26.70000000      90.00000000     360.00000000      36.72888905       1.22783945
      26.80000000      90.00000000     360.00000000      36.72913440       1.22784765
      26.90000000      90.00000000     360.00000000      36.72937974       1.22785585
      27.00000000      90.00000000     360.00000000      36.72962506       1.22786405
      27.10000000      90.00000000     360.00000000      36.72987035       1.22787225
      27.20000000      90.00000000     360.00000000      36.73011563       1.22788045
      27.30000000      90.00000000     360.00000000      36.73036089       1.22788865
      27.40000000      90.00000000     360.00000000      36.73060613       1.22789685
      27.50000000      90.00000000     360.00000000      36.73085134       1.22790505
      27.60000000      90.00000000     360.00000000      36.73109654       1.22791324
      27.70000000      90.00000000     360.00000000      36.73134172       1.22792144
      27.80000000      90.00000000     360.00000000      36.73158687       1.22792963
      27.90000000      90.00000000     360.00000000      36.73183201       1.22793783
      28.00000000      90.00000000     360.00000000      36.73207713       1.22794602
      28.10000000      90.00000000     360.00000000      36.73232222       1.22795422
      28.20000000      90.00000000     360.00000000      36.73256730       1.22796241
      28.30000000      90.00000000     360.00000000      36.73281236       1.22797060
      28.40000000      90.00000000     360.00000000      36.73305740       1.22797879
      28.50000000      90.00000000     360.00000000      36.73330241       1.22798698
      28.60000000      90.00000000     360.00000000      36.73354741       1.22799517
      28.70000000      90.00000000     360.00000000      36.73379239       1.22800336
      28.80000000      90.00000000     360.00000000      36.73403735       1.22801155
      28.90000000      90.00000000     360.00000000      36.73428229       1.22801974
      29.00000000      90.00000000     360.00000000      36.73452720       1.22802793
      29.10000000      90.00000000     360.00000000      36.73477210       1.22803612
      29.20000000      90.00000000     360.00000000      36.73501698       1.22804430
      29.30000000      90.00000000     360.00000000      36.73526184       1.22805249
      29.40000000      90.00000000     360.00000000      36.73550668       1.22806067
      29.50000000      90.00000000     360.00000000      36.73575150       1.22806886
      29.60000000      90.00000000     360.00000000      36.73599630       1.22807704
      29.70000000      90.00000000     360.00000000      36.73624108       1.22808522
      29.80000000      90.00000000     360.00000000      36.73648584       1.22809341
      29.90000000      90.00000000     360.00000000      36.73673058       1.22810159
      30.00000000      90.00000000     360.00000000      36.73697530       1.22810977
      30.10000000      90.00000000     360.00000000      36.73722000       1.22811795
      30.20000000      90.00000000     360.00000000      36.73746468       1.22812613
      30.30000000      90.00000000     360.00000000      36.73770934       1.22813431
      30.40000000      90.00000000     360.00000000      36.73795398       1.22814249
      30.50000000      90.00000000     360.00000000      36.73819861       1.22815066
      30.60000000      90.00000000     360.00000000      36.73844321       1.22815884
      30.70000000      90.00000000     360.00000000      36.73868779       1.22816702
      30.80000000      90.00000000     360.00000000      36.73893235       1.22817519
      30.90000000      90.00000000     360.00000000      36.73917690       1.22818337
      31.00000000      90.00000000     360.00000000      36.73942142       1.22819154
      31.10000000      90.00000000     360.00000000      36.73966592       1.22819972
      31.20000000      90.00000000     360.00000000      36.73991041       1.22820789
      31.30000000      90.00000000     360.00000000      36.74015487       1.22821606
      31.40000000      90.00000000     360.00000000      36.74039932       1.22822423
      31.50000000      90.00000000     360.00000000      36.74064374       1.22823240
      31.60000000      90.00000000     360.00000000      36.74088815       1.22824057
      31.70000000      90.00000000     360.00000000      36.74113253       1.22824874
      31.80000000      90.00000000     360.00000000      36.74137690       1.22825691
      31.90000000      90.00000000     360.00000000      36.74162124       1.22826508
      32.00000000      90.00000000     360.00000000      36.74186557       1.22827325
      32.10000000      90.00000000     360.00000000      36.74210988       1.22828142
      32.20000000      90.00000000     360.00000000      36.74235417       1.22828958
      32.30000000      90.00000000     360.00000000      36.74259844       1.22829775
      32.40000000      90.00000000     360.00000000      36.74284268       1.22830591
      32.50000000      90.00000000     360.00000000      36.74308691       1.22831408
      32.60000000      90.00000000     360.00000000      36.74333112       1.22832224
      32.70000000      90.00000000     360.00000000      36.74357531       1.22833041
      32.80000000      90.00000000     360.00000000      36.74381948       1.22833857
      32.90000000      90.00000000     360.00000000      36.74406364       1.22834673
      33.00000000      90.00000000     360.00000000      36.74430777       1.22835489
      33.10000000      90.00000000     360.00000000      36.74455188       1.22836305
      33.20000000      90.00000000     360.00000000      36.74479597       1.22837121
      33.30000000      90.00000000     360.00000000      36.74504005       1.22837937
      33.40000000      90.00000000     360.00000000      36.74528410       1.22838753
      33.50000000      90.00000000     360.00000000      36.74552813       1.22839569
      33.60000000      90.00000000     360.00000000      36.74577215       1.22840385
      33.70000000      90.00000000     360.00000000      36.74601614       1.22841200
      33.80000000      90.00000000     360.00000000      36.74626012       1.22842016
      33.90000000      90.00000000     360.00000000      36.74650408       1.22842831
      34.00000000      90.00000000     360.00000000      36.74674801       1.22843647
      34.10000000      90.00000000     360.00000000      36.74699193       1.22844462
      34.20000000      90.00000000     360.00000000      36.74723583       1.22845278
      34.30000000      90.00000000     360.00000000      36.74747971       1.22846093
      34.40000000      90.00000000     360.00000000      36.74772357       1.22846908
      34.50000000      90.00000000     360.00000000      36.74796741       1.22847723
      34.60000000      90.00000000     360.00000000      36.74821123       1.22848538
      34.70000000      90.00000000     360.00000000      36.74845503       1.22849353
      34.80000000      90.00000000     360.00000000      36.74869881       1.22850168
      34.90000000      90.00000000     360.00000000      36.74894258       1.22850983
      35.00000000      90.00000000     360.00000000      36.74918632       1.22851798
      35.10000000      90.00000000     360.00000000      36.74943004       1.22852613
      35.20000000      90.00000000     360.00000000      36.74967375       1.22853428
      35.30000000      90.00000000     360.00000000      36.74991743       1.22854242
      35.40000000      90.00000000     360.00000000      36.75016110       1.22855057
      35.50000000      90.00000000     360.00000000      36.75040475       1.22855871
      35.60000000      90.00000000     360.00000000      36.75064838       1.22856686
      35.70000000      90.00000000     360.00000000      36.75089198       1.22857500
      35.80000000      90.00000000     360.00000000      36.75113557       1.22858314
      35.90000000      90.00000000     360.00000000      36.75137914       1.22859129
      36.00000000      90.00000000     360.00000000      36.75162269       1.22859943
      36.10000000      90.00000000     360.00000000      36.75186623       1.22860757
      36.20000000      90.00000000     360.00000000      36.75210974       1.22861571
      36.30000000      90.00000000     360.00000000      36.75235323       1.22862385
      36.40000000      90.00000000     360.00000000      36.75259670       1.22863199
      36.50000000      90.00000000     360.00000000      36.75284016       1.22864013
      36.60000000      90.00000000     360.00000000      36.75308359       1.22864827
      36.70000000      90.00000000     360.00000000      36.75332701       1.22865640
      36.80000000      90.00000000     360.00000000      36.75357041       1.22866454
      36.90000000      90.00000000     360.00000000      36.75381379       1.22867268
      37.00000000      90.00000000     360.00000000      36.75405714       1.22868081
      37.10000000      90.00000000     360.00000000      36.75430048       1.22868895
      37.20000000      90.00000000     360.00000000      36.75454380       1.22869708
      37.30000000      90.00000000     360.00000000      36.75478711       1.22870521
      37.40000000      90.00000000     360.00000000      36.75503039       1.22871335
      37.50000000      90.00000000     360.00000000      36.75527365       1.22872148
      37.60000000      90.00000000     360.00000000      36.75551690       1.22872961
      37.70000000      90.00000000     360.00000000      36.75576012       1.22873774
      37.80000000      90.00000000     360.00000000      36.75600333       1.22874587
      37.90000000      90.00000000     360.00000000      36.75624651       1.22875400
      38.00000000      90.00000000     360.00000000      36.75648968       1.22876213
      38.10000000      90.00000000     360.00000000      36.75673283       1.22877026
      38.20000000      90.00000000     360.00000000      36.75697596       1.22877839
      38.30000000      90.00000000     360.00000000      36.75721907       1.22878651
      38.40000000      90.00000000     360.00000000      36.75746216       1.22879464
      38.50000000      90.00000000     360.00000000      36.75770523       1.22880277
      38.60000000      90.00000000     360.00000000      36.75794829       1.22881089
      38.70000000      90.00000000     360.00000000      36.75819132       1.22881902
      38.80000000      90.00000000     360.00000000      36.75843434       1.22882714
      38.90000000      90.00000000     360.00000000      36.75867733       1.22883526
      39.00000000      90.00000000     360.00000000      36.75892031       1.22884339
      39.10000000      90.00000000     360.00000000      36.75916327       1.22885151
      39.20000000      90.00000000     360.00000000      36.75940621       1.22885963
      39.30000000      90.00000000     360.00000000      36.75964913       1.22886775
      39.40000000      90.00000000     360.00000000      36.75989203       1.22887587
      39.50000000      90.00000000     360.00000000      36.76013491       1.22888399
      39.60000000      90.00000000     360.00000000      36.76037778       1.22889211
      39.70000000      90.00000000     360.00000000      36.76062062       1.22890023
      39.80000000      90.00000000     360.00000000      36.76086345       1.22890834
      39.90000000      90.00000000     360.00000000      36.76110625       1.22891646
      40.00000000      90.00000000     360.00000000      36.76134904       1.22892458
