 # applied field (T), theta (degree), phi (degree), abs [muB/unitcell], abs [T]
       0.00000000       0.00000000       0.00000000      46.30787175       1.59342798
       0.10000000       0.57038504     360.00000000      46.30785313       1.59342734
       0.20000000       1.08379362     360.00000000      46.30780494       1.59342568
       0.30000000       1.65418326     360.00000000      46.30771585       1.59342262
       0.40000000       2.22457774     360.00000000      46.30758963       1.59341828
       0.50000000       2.73799892     360.00000000      46.30744535       1.59341331
       0.60000000       3.30840717     360.00000000      46.30724906       1.59340656
       0.70000000       3.87882508     360.00000000      46.30701598       1.59339854
       0.80000000       4.39227135     360.00000000      46.30677646       1.59339030
       0.90000000       4.96271209     360.00000000      46.30647414       1.59337989
       1.00000000       5.53316723     360.00000000      46.30613556       1.59336824
       1.10000000       6.04665091     360.00000000      46.30580221       1.59335677
       1.20000000       6.61713778     360.00000000      46.30539563       1.59334278
       1.30000000       7.18764368     360.00000000      46.30495354       1.59332757
       1.40000000       7.75817019     360.00000000      46.30447626       1.59331115
       1.50000000       8.32871885     360.00000000      46.30396412       1.59329352
       1.60000000       8.84229296     360.00000000      46.30347686       1.59327676
       1.70000000       9.41288786     360.00000000      46.30289968       1.59325690
       1.80000000       9.98350930     360.00000000      46.30228874       1.59323588
       1.90000000      10.55415877     360.00000000      46.30164445       1.59321371
       2.00000000      11.12483770     360.00000000      46.30096727       1.59319040
       2.10000000      11.69554754     360.00000000      46.30025766       1.59316599
       2.20000000      12.26628967     360.00000000      46.29951610       1.59314047
       2.30000000      12.83706547     360.00000000      46.29874312       1.59311387
       2.40000000      13.40787628     360.00000000      46.29793923       1.59308621
       2.50000000      13.97872343     360.00000000      46.29710499       1.59305751
       2.60000000      14.54960818     360.00000000      46.29624097       1.59302777
       2.70000000      15.17756738     360.00000000      46.29525143       1.59299373
       2.80000000      15.74853530     360.00000000      46.29432661       1.59296190
       2.90000000      16.31954461     360.00000000      46.29337390       1.59292912
       3.00000000      16.89059647     360.00000000      46.29239393       1.59289540
       3.10000000      17.51874558     360.00000000      46.29127906       1.59285704
       3.20000000      18.08989052     360.00000000      46.29024384       1.59282142
       3.30000000      18.71814491     360.00000000      46.28906945       1.59278101
       3.40000000      19.28938752     360.00000000      46.28798206       1.59274359
       3.50000000      19.91775207     360.00000000      46.28675160       1.59270125
       3.60000000      20.54617622     360.00000000      46.28549310       1.59265795
       3.70000000      21.17466116     360.00000000      46.28420756       1.59261371
       3.80000000      21.74611675     360.00000000      46.28302327       1.59257296
       3.90000000      22.37472059     360.00000000      46.28168918       1.59252706
       4.00000000      23.00338829     360.00000000      46.28033107       1.59248032
       4.10000000      23.63212078     360.00000000      46.27895003       1.59243280
       4.20000000      24.31803457     360.00000000      46.27741079       1.59237984
       4.30000000      24.94690553     360.00000000      46.27598513       1.59233078
       4.40000000      25.57584379     360.00000000      46.27453993       1.59228105
       4.50000000      26.26198537     360.00000000      46.27293402       1.59222580
       4.60000000      26.89106673     360.00000000      46.27145142       1.59217478
       4.70000000      27.57736630     360.00000000      46.26980704       1.59211820
       4.80000000      28.26374940     360.00000000      46.26814465       1.59206100
       4.90000000      28.95021658     360.00000000      46.26646577       1.59200323
       5.00000000      29.63676832     360.00000000      46.26477189       1.59194494
       5.10000000      30.32340498     360.00000000      46.26306455       1.59188619
       5.20000000      31.01012687     360.00000000      46.26134524       1.59182703
       5.30000000      31.75412778     360.00000000      46.25946179       1.59176222
       5.40000000      32.44102804     360.00000000      46.25772229       1.59170237
       5.50000000      33.18522297     360.00000000      46.25582014       1.59163692
       5.60000000      33.92951890     360.00000000      46.25391101       1.59157122
       5.70000000      34.67391567     360.00000000      46.25199679       1.59150536
       5.80000000      35.47564689     360.00000000      46.24992252       1.59143398
       5.90000000      36.22025240     360.00000000      46.24800368       1.59136796
       6.00000000      37.02220809     360.00000000      46.24592845       1.59129655
       6.10000000      37.82427932     360.00000000      46.24385605       1.59122524
       6.20000000      38.62646524     360.00000000      46.24178877       1.59115411
       6.30000000      39.42876488     360.00000000      46.23972889       1.59108323
       6.40000000      40.28846215     360.00000000      46.23752292       1.59100732
       6.50000000      41.14828798     360.00000000      46.23533032       1.59093187
       6.60000000      42.00824075     360.00000000      46.23315373       1.59085698
       6.70000000      42.92563067     360.00000000      46.23084302       1.59077747
       6.80000000      43.84316157     360.00000000      46.22855614       1.59069878
       6.90000000      44.76083101     360.00000000      46.22629600       1.59062101
       7.00000000      45.73597593     360.00000000      46.22391767       1.59053917
       7.10000000      46.71127197     360.00000000      46.22157565       1.59045858
       7.20000000      47.74407407     360.00000000      46.21912975       1.59037442
       7.30000000      48.77703851     360.00000000      46.21673125       1.59029189
       7.40000000      49.81016094     360.00000000      46.21438346       1.59021110
       7.50000000      50.95820968     360.00000000      46.21181977       1.59012289
       7.60000000      52.04904736     360.00000000      46.20945709       1.59004159
       7.70000000      53.25485624     360.00000000      46.20690503       1.58995377
       7.80000000      54.46085579     360.00000000      46.20443700       1.58986885
       7.90000000      55.78188737     360.00000000      46.20181756       1.58977872
       8.00000000      57.10313000     360.00000000      46.19930609       1.58969230
       8.10000000      58.48201681     360.00000000      46.19679608       1.58960593
       8.20000000      59.97601728     360.00000000      46.19420117       1.58951664
       8.30000000      61.52771069     360.00000000      46.19165528       1.58942904
       8.40000000      63.19458044     360.00000000      46.18908589       1.58934063
       8.50000000      64.97666207     360.00000000      46.18653219       1.58925276
       8.60000000      66.93147731     360.00000000      46.18395718       1.58916415
       8.70000000      69.11657809     360.00000000      46.18135634       1.58907466
       8.80000000      71.53203220     360.00000000      46.17882365       1.58898751
       8.90000000      74.35044681     360.00000000      46.17630491       1.58890084
       9.00000000      77.91708847     360.00000000      46.17376276       1.58881337
       9.10000000      83.09518143     360.00000000      46.17129912       1.58872860
       9.20000000      90.00000000     360.00000000      46.17023870       1.58869211
       9.30000000      90.00000000     360.00000000      46.17045151       1.58869943
       9.40000000      90.00000000     360.00000000      46.17066430       1.58870675
       9.50000000      90.00000000     360.00000000      46.17087706       1.58871407
       9.60000000      90.00000000     360.00000000      46.17108978       1.58872139
       9.70000000      90.00000000     360.00000000      46.17130248       1.58872871
       9.80000000      90.00000000     360.00000000      46.17151515       1.58873603
       9.90000000      90.00000000     360.00000000      46.17172779       1.58874335
      10.00000000      90.00000000     360.00000000      46.17194039       1.58875066
      10.10000000      90.00000000     360.00000000      46.17215297       1.58875798
      10.20000000      90.00000000     360.00000000      46.17236552       1.58876529
      10.30000000      90.00000000     360.00000000      46.17257804       1.58877260
      10.40000000      90.00000000     360.00000000      46.17279053       1.58877991
      10.50000000      90.00000000     360.00000000      46.17300299       1.58878722
      10.60000000      90.00000000     360.00000000      46.17321542       1.58879453
      10.70000000      90.00000000     360.00000000      46.17342782       1.58880184
      10.80000000      90.00000000     360.00000000      46.17364020       1.58880915
      10.90000000      90.00000000     360.00000000      46.17385254       1.58881646
      11.00000000      90.00000000     360.00000000      46.17406485       1.58882376
      11.10000000      90.00000000     360.00000000      46.17427714       1.58883107
      11.20000000      90.00000000     360.00000000      46.17448939       1.58883837
      11.30000000      90.00000000     360.00000000      46.17470162       1.58884567
      11.40000000      90.00000000     360.00000000      46.17491381       1.58885298
      11.50000000      90.00000000     360.00000000      46.17512598       1.58886028
      11.60000000      90.00000000     360.00000000      46.17533812       1.58886758
      11.70000000      90.00000000     360.00000000      46.17555022       1.58887487
      11.80000000      90.00000000     360.00000000      46.17576230       1.58888217
      11.90000000      90.00000000     360.00000000      46.17597435       1.58888947
      12.00000000      90.00000000     360.00000000      46.17618637       1.58889676
      12.10000000      90.00000000     360.00000000      46.17639837       1.58890406
      12.20000000      90.00000000     360.00000000      46.17661033       1.58891135
      12.30000000      90.00000000     360.00000000      46.17682226       1.58891864
      12.40000000      90.00000000     360.00000000      46.17703417       1.58892594
      12.50000000      90.00000000     360.00000000      46.17724604       1.58893323
      12.60000000      90.00000000     360.00000000      46.17745789       1.58894052
      12.70000000      90.00000000     360.00000000      46.17766971       1.58894780
      12.80000000      90.00000000     360.00000000      46.17788150       1.58895509
      12.90000000      90.00000000     360.00000000      46.17809326       1.58896238
      13.00000000      90.00000000     360.00000000      46.17830499       1.58896966
      13.10000000      90.00000000     360.00000000      46.17851669       1.58897695
      13.20000000      90.00000000     360.00000000      46.17872836       1.58898423
      13.30000000      90.00000000     360.00000000      46.17894001       1.58899151
      13.40000000      90.00000000     360.00000000      46.17915162       1.58899880
      13.50000000      90.00000000     360.00000000      46.17936321       1.58900608
      13.60000000      90.00000000     360.00000000      46.17957477       1.58901336
      13.70000000      90.00000000     360.00000000      46.17978630       1.58902063
      13.80000000      90.00000000     360.00000000      46.17999780       1.58902791
      13.90000000      90.00000000     360.00000000      46.18020927       1.58903519
      14.00000000      90.00000000     360.00000000      46.18042072       1.58904246
      14.10000000      90.00000000     360.00000000      46.18063213       1.58904974
      14.20000000      90.00000000     360.00000000      46.18084352       1.58905701
      14.30000000      90.00000000     360.00000000      46.18105488       1.58906429
      14.40000000      90.00000000     360.00000000      46.18126621       1.58907156
      14.50000000      90.00000000     360.00000000      46.18147751       1.58907883
      14.60000000      90.00000000     360.00000000      46.18168878       1.58908610
      14.70000000      90.00000000     360.00000000      46.18190002       1.58909337
      14.80000000      90.00000000     360.00000000      46.18211124       1.58910063
      14.90000000      90.00000000     360.00000000      46.18232242       1.58910790
      15.00000000      90.00000000     360.00000000      46.18253358       1.58911517
      15.10000000      90.00000000     360.00000000      46.18274471       1.58912243
      15.20000000      90.00000000     360.00000000      46.18295581       1.58912970
      15.30000000      90.00000000     360.00000000      46.18316689       1.58913696
      15.40000000      90.00000000     360.00000000      46.18337793       1.58914422
      15.50000000      90.00000000     360.00000000      46.18358895       1.58915148
      15.60000000      90.00000000     360.00000000      46.18379993       1.58915874
      15.70000000      90.00000000     360.00000000      46.18401089       1.58916600
      15.80000000      90.00000000     360.00000000      46.18422182       1.58917326
      15.90000000      90.00000000     360.00000000      46.18443273       1.58918052
      16.00000000      90.00000000     360.00000000      46.18464360       1.58918777
      16.10000000      90.00000000     360.00000000      46.18485444       1.58919503
      16.20000000      90.00000000     360.00000000      46.18506526       1.58920228
      16.30000000      90.00000000     360.00000000      46.18527605       1.58920953
      16.40000000      90.00000000     360.00000000      46.18548681       1.58921679
      16.50000000      90.00000000     360.00000000      46.18569754       1.58922404
      16.60000000      90.00000000     360.00000000      46.18590825       1.58923129
      16.70000000      90.00000000     360.00000000      46.18611892       1.58923854
      16.80000000      90.00000000     360.00000000      46.18632957       1.58924578
      16.90000000      90.00000000     360.00000000      46.18654019       1.58925303
      17.00000000      90.00000000     360.00000000      46.18675078       1.58926028
      17.10000000      90.00000000     360.00000000      46.18696134       1.58926752
      17.20000000      90.00000000     360.00000000      46.18717188       1.58927477
      17.30000000      90.00000000     360.00000000      46.18738238       1.58928201
      17.40000000      90.00000000     360.00000000      46.18759286       1.58928925
      17.50000000      90.00000000     360.00000000      46.18780331       1.58929650
      17.60000000      90.00000000     360.00000000      46.18801373       1.58930374
      17.70000000      90.00000000     360.00000000      46.18822412       1.58931098
      17.80000000      90.00000000     360.00000000      46.18843449       1.58931821
      17.90000000      90.00000000     360.00000000      46.18864482       1.58932545
      18.00000000      90.00000000     360.00000000      46.18885513       1.58933269
      18.10000000      90.00000000     360.00000000      46.18906541       1.58933992
      18.20000000      90.00000000     360.00000000      46.18927566       1.58934716
      18.30000000      90.00000000     360.00000000      46.18948588       1.58935439
      18.40000000      90.00000000     360.00000000      46.18969608       1.58936162
      18.50000000      90.00000000     360.00000000      46.18990624       1.58936886
      18.60000000      90.00000000     360.00000000      46.19011638       1.58937609
      18.70000000      90.00000000     360.00000000      46.19032649       1.58938332
      18.80000000      90.00000000     360.00000000      46.19053657       1.58939055
      18.90000000      90.00000000     360.00000000      46.19074662       1.58939777
      19.00000000      90.00000000     360.00000000      46.19095665       1.58940500
      19.10000000      90.00000000     360.00000000      46.19116664       1.58941223
      19.20000000      90.00000000     360.00000000      46.19137661       1.58941945
      19.30000000      90.00000000     360.00000000      46.19158655       1.58942667
      19.40000000      90.00000000     360.00000000      46.19179646       1.58943390
      19.50000000      90.00000000     360.00000000      46.19200634       1.58944112
      19.60000000      90.00000000     360.00000000      46.19221619       1.58944834
      19.70000000      90.00000000     360.00000000      46.19242602       1.58945556
      19.80000000      90.00000000     360.00000000      46.19263582       1.58946278
      19.90000000      90.00000000     360.00000000      46.19284558       1.58947000
      20.00000000      90.00000000     360.00000000      46.19305532       1.58947721
      20.10000000      90.00000000     360.00000000      46.19326503       1.58948443
      20.20000000      90.00000000     360.00000000      46.19347472       1.58949165
      20.30000000      90.00000000     360.00000000      46.19368437       1.58949886
      20.40000000      90.00000000     360.00000000      46.19389400       1.58950607
      20.50000000      90.00000000     360.00000000      46.19410359       1.58951328
      20.60000000      90.00000000     360.00000000      46.19431316       1.58952050
      20.70000000      90.00000000     360.00000000      46.19452270       1.58952771
      20.80000000      90.00000000     360.00000000      46.19473221       1.58953492
      20.90000000      90.00000000     360.00000000      46.19494170       1.58954212
      21.00000000      90.00000000     360.00000000      46.19515115       1.58954933
      21.10000000      90.00000000     360.00000000      46.19536058       1.58955654
      21.20000000      90.00000000     360.00000000      46.19556998       1.58956374
      21.30000000      90.00000000     360.00000000      46.19577935       1.58957095
      21.40000000      90.00000000     360.00000000      46.19598869       1.58957815
      21.50000000      90.00000000     360.00000000      46.19619800       1.58958535
      21.60000000      90.00000000     360.00000000      46.19640728       1.58959255
      21.70000000      90.00000000     360.00000000      46.19661654       1.58959975
      21.80000000      90.00000000     360.00000000      46.19682576       1.58960695
      21.90000000      90.00000000     360.00000000      46.19703496       1.58961415
      22.00000000      90.00000000     360.00000000      46.19724413       1.58962135
      22.10000000      90.00000000     360.00000000      46.19745327       1.58962855
      22.20000000      90.00000000     360.00000000      46.19766238       1.58963574
      22.30000000      90.00000000     360.00000000      46.19787147       1.58964294
      22.40000000      90.00000000     360.00000000      46.19808052       1.58965013
      22.50000000      90.00000000     360.00000000      46.19828955       1.58965732
      22.60000000      90.00000000     360.00000000      46.19849855       1.58966451
      22.70000000      90.00000000     360.00000000      46.19870752       1.58967170
      22.80000000      90.00000000     360.00000000      46.19891647       1.58967889
      22.90000000      90.00000000     360.00000000      46.19912538       1.58968608
      23.00000000      90.00000000     360.00000000      46.19933426       1.58969327
      23.10000000      90.00000000     360.00000000      46.19954312       1.58970046
      23.20000000      90.00000000     360.00000000      46.19975195       1.58970764
      23.30000000      90.00000000     360.00000000      46.19996075       1.58971483
      23.40000000      90.00000000     360.00000000      46.20016952       1.58972201
      23.50000000      90.00000000     360.00000000      46.20037826       1.58972919
      23.60000000      90.00000000     360.00000000      46.20058697       1.58973637
      23.70000000      90.00000000     360.00000000      46.20079565       1.58974355
      23.80000000      90.00000000     360.00000000      46.20100431       1.58975073
      23.90000000      90.00000000     360.00000000      46.20121294       1.58975791
      24.00000000      90.00000000     360.00000000      46.20142154       1.58976509
      24.10000000      90.00000000     360.00000000      46.20163011       1.58977227
      24.20000000      90.00000000     360.00000000      46.20183865       1.58977944
      24.30000000      90.00000000     360.00000000      46.20204716       1.58978662
      24.40000000      90.00000000     360.00000000      46.20225565       1.58979379
      24.50000000      90.00000000     360.00000000      46.20246411       1.58980097
      24.60000000      90.00000000     360.00000000      46.20267254       1.58980814
      24.70000000      90.00000000     360.00000000      46.20288094       1.58981531
      24.80000000      90.00000000     360.00000000      46.20308931       1.58982248
      24.90000000      90.00000000     360.00000000      46.20329765       1.58982965
      25.00000000      90.00000000     360.00000000      46.20350597       1.58983682
      25.10000000      90.00000000     360.00000000      46.20371426       1.58984398
      25.20000000      90.00000000     360.00000000      46.20392252       1.58985115
      25.30000000      90.00000000     360.00000000      46.20413075       1.58985831
      25.40000000      90.00000000     360.00000000      46.20433896       1.58986548
      25.50000000      90.00000000     360.00000000      46.20454713       1.58987264
      25.60000000      90.00000000     360.00000000      46.20475528       1.58987980
      25.70000000      90.00000000     360.00000000      46.20496340       1.58988696
      25.80000000      90.00000000     360.00000000      46.20517149       1.58989412
      25.90000000      90.00000000     360.00000000      46.20537955       1.58990128
      26.00000000      90.00000000     360.00000000      46.20558758       1.58990844
      26.10000000      90.00000000     360.00000000      46.20579558       1.58991560
      26.20000000      90.00000000     360.00000000      46.20600355       1.58992276
      26.30000000      90.00000000     360.00000000      46.20621150       1.58992991
      26.40000000      90.00000000     360.00000000      46.20641942       1.58993707
      26.50000000      90.00000000     360.00000000      46.20662731       1.58994422
      26.60000000      90.00000000     360.00000000      46.20683517       1.58995137
      26.70000000      90.00000000     360.00000000      46.20704301       1.58995852
      26.80000000      90.00000000     360.00000000      46.20725081       1.58996567
      26.90000000      90.00000000     360.00000000      46.20745859       1.58997282
      27.00000000      90.00000000     360.00000000      46.20766634       1.58997997
      27.10000000      90.00000000     360.00000000      46.20787407       1.58998712
      27.20000000      90.00000000     360.00000000      46.20808176       1.58999427
      27.30000000      90.00000000     360.00000000      46.20828943       1.59000141
      27.40000000      90.00000000     360.00000000      46.20849707       1.59000856
      27.50000000      90.00000000     360.00000000      46.20870468       1.59001570
      27.60000000      90.00000000     360.00000000      46.20891226       1.59002284
      27.70000000      90.00000000     360.00000000      46.20911985       1.59002999
      27.80000000      90.00000000     360.00000000      46.20932738       1.59003713
      27.90000000      90.00000000     360.00000000      46.20953488       1.59004427
      28.00000000      90.00000000     360.00000000      46.20974235       1.59005141
      28.10000000      90.00000000     360.00000000      46.20994979       1.59005854
      28.20000000      90.00000000     360.00000000      46.21015721       1.59006568
      28.30000000      90.00000000     360.00000000      46.21036460       1.59007282
      28.40000000      90.00000000     360.00000000      46.21057196       1.59007995
      28.50000000      90.00000000     360.00000000      46.21077929       1.59008709
      28.60000000      90.00000000     360.00000000      46.21098659       1.59009422
      28.70000000      90.00000000     360.00000000      46.21119387       1.59010135
      28.80000000      90.00000000     360.00000000      46.21140111       1.59010848
      28.90000000      90.00000000     360.00000000      46.21160833       1.59011561
      29.00000000      90.00000000     360.00000000      46.21181553       1.59012274
      29.10000000      90.00000000     360.00000000      46.21202269       1.59012987
      29.20000000      90.00000000     360.00000000      46.21222983       1.59013700
      29.30000000      90.00000000     360.00000000      46.21243694       1.59014412
      29.40000000      90.00000000     360.00000000      46.21264402       1.59015125
      29.50000000      90.00000000     360.00000000      46.21285107       1.59015837
      29.60000000      90.00000000     360.00000000      46.21305810       1.59016550
      29.70000000      90.00000000     360.00000000      46.21326509       1.59017262
      29.80000000      90.00000000     360.00000000      46.21347206       1.59017974
      29.90000000      90.00000000     360.00000000      46.21367901       1.59018686
      30.00000000      90.00000000     360.00000000      46.21388592       1.59019398
      30.10000000      90.00000000     360.00000000      46.21409281       1.59020110
      30.20000000      90.00000000     360.00000000      46.21429967       1.59020822
      30.30000000      90.00000000     360.00000000      46.21450650       1.59021534
      30.40000000      90.00000000     360.00000000      46.21471330       1.59022245
      30.50000000      90.00000000     360.00000000      46.21492008       1.59022957
      30.60000000      90.00000000     360.00000000      46.21512683       1.59023668
      30.70000000      90.00000000     360.00000000      46.21533355       1.59024380
      30.80000000      90.00000000     360.00000000      46.21554024       1.59025091
      30.90000000      90.00000000     360.00000000      46.21574691       1.59025802
      31.00000000      90.00000000     360.00000000      46.21595354       1.59026513
      31.10000000      90.00000000     360.00000000      46.21616015       1.59027224
      31.20000000      90.00000000     360.00000000      46.21636674       1.59027935
      31.30000000      90.00000000     360.00000000      46.21657329       1.59028645
      31.40000000      90.00000000     360.00000000      46.21677982       1.59029356
      31.50000000      90.00000000     360.00000000      46.21698632       1.59030067
      31.60000000      90.00000000     360.00000000      46.21719279       1.59030777
      31.70000000      90.00000000     360.00000000      46.21739924       1.59031487
      31.80000000      90.00000000     360.00000000      46.21760565       1.59032198
      31.90000000      90.00000000     360.00000000      46.21781204       1.59032908
      32.00000000      90.00000000     360.00000000      46.21801841       1.59033618
      32.10000000      90.00000000     360.00000000      46.21822474       1.59034328
      32.20000000      90.00000000     360.00000000      46.21843105       1.59035038
      32.30000000      90.00000000     360.00000000      46.21863733       1.59035748
      32.40000000      90.00000000     360.00000000      46.21884358       1.59036457
      32.50000000      90.00000000     360.00000000      46.21904981       1.59037167
      32.60000000      90.00000000     360.00000000      46.21925600       1.59037877
      32.70000000      90.00000000     360.00000000      46.21946218       1.59038586
      32.80000000      90.00000000     360.00000000      46.21966832       1.59039295
      32.90000000      90.00000000     360.00000000      46.21987443       1.59040004
      33.00000000      90.00000000     360.00000000      46.22008052       1.59040714
      33.10000000      90.00000000     360.00000000      46.22028658       1.59041423
      33.20000000      90.00000000     360.00000000      46.22049262       1.59042132
      33.30000000      90.00000000     360.00000000      46.22069862       1.59042840
      33.40000000      90.00000000     360.00000000      46.22090460       1.59043549
      33.50000000      90.00000000     360.00000000      46.22111055       1.59044258
      33.60000000      90.00000000     360.00000000      46.22131648       1.59044966
      33.70000000      90.00000000     360.00000000      46.22152238       1.59045675
      33.80000000      90.00000000     360.00000000      46.22172825       1.59046383
      33.90000000      90.00000000     360.00000000      46.22193409       1.59047092
      34.00000000      90.00000000     360.00000000      46.22213990       1.59047800
      34.10000000      90.00000000     360.00000000      46.22234569       1.59048508
      34.20000000      90.00000000     360.00000000      46.22255145       1.59049216
      34.30000000      90.00000000     360.00000000      46.22275719       1.59049924
      34.40000000      90.00000000     360.00000000      46.22296289       1.59050632
      34.50000000      90.00000000     360.00000000      46.22316857       1.59051339
      34.60000000      90.00000000     360.00000000      46.22337423       1.59052047
      34.70000000      90.00000000     360.00000000      46.22357985       1.59052755
      34.80000000      90.00000000     360.00000000      46.22378545       1.59053462
      34.90000000      90.00000000     360.00000000      46.22399102       1.59054169
      35.00000000      90.00000000     360.00000000      46.22419656       1.59054877
      35.10000000      90.00000000     360.00000000      46.22440208       1.59055584
      35.20000000      90.00000000     360.00000000      46.22460757       1.59056291
      35.30000000      90.00000000     360.00000000      46.22481303       1.59056998
      35.40000000      90.00000000     360.00000000      46.22501847       1.59057705
      35.50000000      90.00000000     360.00000000      46.22522387       1.59058412
      35.60000000      90.00000000     360.00000000      46.22542926       1.59059118
      35.70000000      90.00000000     360.00000000      46.22563461       1.59059825
      35.80000000      90.00000000     360.00000000      46.22583994       1.59060531
      35.90000000      90.00000000     360.00000000      46.22604524       1.59061238
      36.00000000      90.00000000     360.00000000      46.22625051       1.59061944
      36.10000000      90.00000000     360.00000000      46.22645576       1.59062650
      36.20000000      90.00000000     360.00000000      46.22666097       1.59063357
      36.30000000      90.00000000     360.00000000      46.22686617       1.59064063
      36.40000000      90.00000000     360.00000000      46.22707133       1.59064769
      36.50000000      90.00000000     360.00000000      46.22727647       1.59065474
      36.60000000      90.00000000     360.00000000      46.22748158       1.59066180
      36.70000000      90.00000000     360.00000000      46.22768666       1.59066886
      36.80000000      90.00000000     360.00000000      46.22789172       1.59067592
      36.90000000      90.00000000     360.00000000      46.22809675       1.59068297
      37.00000000      90.00000000     360.00000000      46.22830176       1.59069002
      37.10000000      90.00000000     360.00000000      46.22850673       1.59069708
      37.20000000      90.00000000     360.00000000      46.22871168       1.59070413
      37.30000000      90.00000000     360.00000000      46.22891660       1.59071118
      37.40000000      90.00000000     360.00000000      46.22912150       1.59071823
      37.50000000      90.00000000     360.00000000      46.22932637       1.59072528
      37.60000000      90.00000000     360.00000000      46.22953121       1.59073233
      37.70000000      90.00000000     360.00000000      46.22973603       1.59073938
      37.80000000      90.00000000     360.00000000      46.22994082       1.59074642
      37.90000000      90.00000000     360.00000000      46.23014558       1.59075347
      38.00000000      90.00000000     360.00000000      46.23035031       1.59076051
      38.10000000      90.00000000     360.00000000      46.23055502       1.59076756
      38.20000000      90.00000000     360.00000000      46.23075970       1.59077460
      38.30000000      90.00000000     360.00000000      46.23096435       1.59078164
      38.40000000      90.00000000     360.00000000      46.23116897       1.59078868
      38.50000000      90.00000000     360.00000000      46.23137357       1.59079572
      38.60000000      90.00000000     360.00000000      46.23157815       1.59080276
      38.70000000      90.00000000     360.00000000      46.23178269       1.59080980
      38.80000000      90.00000000     360.00000000      46.23198721       1.59081684
      38.90000000      90.00000000     360.00000000      46.23219170       1.59082388
      39.00000000      90.00000000     360.00000000      46.23239617       1.59083091
      39.10000000      90.00000000     360.00000000      46.23260061       1.59083795
      39.20000000      90.00000000     360.00000000      46.23280502       1.59084498
      39.30000000      90.00000000     360.00000000      46.23300940       1.59085201
      39.40000000      90.00000000     360.00000000      46.23321376       1.59085904
      39.50000000      90.00000000     360.00000000      46.23341810       1.59086607
      39.60000000      90.00000000     360.00000000      46.23362240       1.59087310
      39.70000000      90.00000000     360.00000000      46.23382668       1.59088013
      39.80000000      90.00000000     360.00000000      46.23403097       1.59088716
      39.90000000      90.00000000     360.00000000      46.23423520       1.59089419
      40.00000000      90.00000000     360.00000000      46.23443940       1.59090122
