 # applied field (T), theta (degree), phi (degree), abs for RE 3-4
     0.00000    37.71406   135.00000     0.04687    37.71406    45.00000     0.04687
     0.10000    37.56059   136.33983     0.04749    37.44704    46.38225     0.04672
     0.20000    37.40826   137.50630     0.04806    37.22109    47.65852     0.04660
     0.30000    37.25903   138.75002     0.04867    36.97191    49.10083     0.04646
     0.40000    37.10970   139.94544     0.04928    36.73403    50.57273     0.04633
     0.50000    36.95720   140.98482     0.04982    36.53784    51.92527     0.04622
     0.60000    36.80381   142.09272     0.05041    36.32511    53.44777     0.04611
     0.70000    36.64647   143.15719     0.05099    36.12737    54.99359     0.04600
     0.80000    36.48355   144.08221     0.05150    35.97051    56.40567     0.04592
     0.90000    36.31565   145.06877     0.05205    35.80433    57.98753     0.04583
     1.00000    36.14081   146.01703     0.05259    35.65612    59.58383     0.04575
     1.10000    35.95817   146.92875     0.05311    35.52668    61.19099     0.04569
     1.20000    35.76693   147.80565     0.05361    35.41665    62.80524     0.04563
     1.30000    35.56636   148.64945     0.05409    35.32655    64.42263     0.04559
     1.40000    35.35577   149.46181     0.05455    35.25670    66.03907     0.04555
     1.50000    35.12980   150.31989     0.05503    35.19560    67.81130     0.04553
     1.60000    34.89633   151.07166     0.05545    35.16863    69.41288     0.04552
     1.70000    34.65100   151.79691     0.05584    35.16195    71.00070     0.04552
     1.80000    34.38547   152.56520     0.05625    35.16960    72.72873     0.04553
     1.90000    34.10478   153.30548     0.05662    35.20069    74.43156     0.04556
     2.00000    33.81853   153.95609     0.05693    35.25592    75.95047     0.04559
     2.10000    33.50701   154.64795     0.05725    35.32933    77.59139     0.04564
     2.20000    33.17864   155.31715     0.05753    35.42330    79.19401     0.04570
     2.30000    32.81887   156.02333     0.05780    35.54052    80.89963     0.04578
     2.40000    32.45382   156.65091     0.05801    35.67329    82.41130     0.04586
     2.50000    32.05343   157.31596     0.05820    35.82955    84.01187     0.04596
     2.60000    31.64944   157.90951     0.05834    35.99477    85.42021     0.04606
     2.70000    31.18618   158.59377     0.05847    36.19286    87.03292     0.04619
     2.80000    30.71806   159.21110     0.05853    36.39596    88.44904     0.04631
     2.90000    30.22609   159.81722     0.05855    36.61075    89.80027     0.04645
     3.00000    29.68479   160.46402     0.05853    36.84834    91.19958     0.04660
     3.10000    29.11489   161.10379     0.05846    37.09536    92.52264     0.04675
     3.20000    28.48700   161.78864     0.05833    37.36407    93.87243     0.04693
     3.30000    27.85573   162.42540     0.05814    37.62407    95.03836     0.04709
     3.40000    27.12834   163.16502     0.05789    37.91779    96.31360     0.04728
     3.50000    26.39580   163.86794     0.05757    38.19845    97.40762     0.04746
     3.60000    25.58964   164.64054     0.05718    38.49463    98.50048     0.04765
     3.70000    24.70216   165.49657     0.05670    38.80458    99.57788     0.04784
     3.80000    23.76705   166.40045     0.05614    39.11080   100.55676     0.04804
     3.90000    22.73895   167.42896     0.05547    39.42661   101.50437     0.04823
     4.00000    21.60922   168.62001     0.05469    39.74949   102.40799     0.04843
     4.10000    20.41919   169.95680     0.05382    40.06255   103.20344     0.04862
     4.20000    19.11633   171.57513     0.05281    40.37824   103.94283     0.04880
     4.30000    17.69397   173.59250     0.05166    40.69398   104.61568     0.04897
     4.40000    16.09058   176.32090     0.05032    41.01950   105.24822     0.04914
     4.50000    14.36433   180.02342     0.04881    41.33864   105.78516     0.04928
     4.60000    12.54052   185.30974     0.04713    41.64924   106.21929     0.04939
     4.70000    10.57774   193.96983     0.04517    41.96941   106.58381     0.04948
     4.80000     8.78418   208.52925     0.04296    42.28408   106.82843     0.04953
     4.90000     7.80227   232.84195     0.04045    42.59895   106.94461     0.04951
     5.00000     8.88719   263.04231     0.03758    42.91803   106.90602     0.04942
     5.10000    12.90184   285.85291     0.03427    43.25183   106.66858     0.04921
     5.20000    19.95610   298.21794     0.03056    43.60515   106.16274     0.04883
     5.30000    31.57403   304.14925     0.02640    44.02226   105.25363     0.04814
     5.40000    52.50490   305.07863     0.02224    44.61796   103.62789     0.04681
     5.50000    95.85644   296.23740     0.02184    46.09534   100.21562     0.04319
     5.60000   128.12014   262.70756     0.03352    51.87986    97.29244     0.03352
     5.70000   128.13331   262.92474     0.03351    51.86669    97.07526     0.03351
     5.80000   128.14609   263.14217     0.03349    51.85391    96.85783     0.03349
     5.90000   128.15848   263.35985     0.03348    51.84152    96.64015     0.03348
     6.00000   128.17048   263.57776     0.03346    51.82952    96.42224     0.03346
     6.10000   128.18208   263.79590     0.03345    51.81792    96.20410     0.03345
     6.20000   128.19329   264.01427     0.03343    51.80671    95.98573     0.03343
     6.30000   128.20410   264.23286     0.03342    51.79590    95.76714     0.03342
     6.40000   128.21451   264.45166     0.03341    51.78549    95.54834     0.03341
     6.50000   128.22452   264.67067     0.03339    51.77548    95.32933     0.03339
     6.60000   128.23413   264.88988     0.03338    51.76587    95.11012     0.03338
     6.70000   128.24333   265.10928     0.03337    51.75667    94.89072     0.03337
     6.80000   128.25214   265.32888     0.03336    51.74786    94.67112     0.03336
     6.90000   128.26054   265.54865     0.03334    51.73946    94.45135     0.03334
     7.00000   128.26854   265.76861     0.03333    51.73146    94.23139     0.03333
     7.10000   128.27612   265.98873     0.03332    51.72388    94.01127     0.03332
     7.20000   128.28331   266.20902     0.03331    51.71669    93.79098     0.03331
     7.30000   128.29008   266.42947     0.03330    51.70992    93.57053     0.03330
     7.40000   128.29644   266.65007     0.03329    51.70356    93.34993     0.03329
     7.50000   128.30239   266.87081     0.03328    51.69761    93.12919     0.03328
     7.60000   128.30794   267.09169     0.03327    51.69206    92.90831     0.03327
     7.70000   128.31307   267.31270     0.03326    51.68693    92.68730     0.03326
     7.80000   128.31778   267.53384     0.03325    51.68222    92.46616     0.03325
     7.90000   128.32209   267.75510     0.03324    51.67791    92.24490     0.03324
     8.00000   128.32598   267.97647     0.03323    51.67402    92.02353     0.03323
     8.10000   128.32945   268.19795     0.03322    51.67055    91.80205     0.03322
     8.20000   128.33251   268.41953     0.03321    51.66749    91.58047     0.03321
     8.30000   128.33515   268.64120     0.03321    51.66485    91.35880     0.03321
     8.40000   128.33738   268.86296     0.03320    51.66262    91.13704     0.03320
     8.50000   128.33919   269.08480     0.03319    51.66081    90.91520     0.03319
     8.60000   128.34058   269.30671     0.03318    51.65942    90.69329     0.03318
     8.70000   128.34156   269.52869     0.03318    51.65844    90.47131     0.03318
     8.80000   128.34211   269.75073     0.03317    51.65789    90.24927     0.03317
     8.90000   128.34225   269.97282     0.03317    51.65775    90.02718     0.03317
     9.00000   128.34197   270.19496     0.03316    51.65803    89.80504     0.03316
     9.10000   128.34127   270.41714     0.03315    51.65873    89.58286     0.03315
     9.20000   128.34015   270.63936     0.03315    51.65985    89.36064     0.03315
     9.30000   128.33861   270.86160     0.03314    51.66139    89.13840     0.03314
     9.40000   128.33665   271.08386     0.03314    51.66335    88.91614     0.03314
     9.50000   128.33427   271.30614     0.03314    51.66573    88.69386     0.03314
     9.60000   128.33147   271.52842     0.03313    51.66853    88.47158     0.03313
     9.70000   128.32826   271.75070     0.03313    51.67174    88.24930     0.03313
     9.80000   128.32462   271.97298     0.03313    51.67538    88.02702     0.03313
     9.90000   128.32056   272.19525     0.03312    51.67944    87.80475     0.03312
    10.00000   128.31608   272.41749     0.03312    51.68392    87.58251     0.03312
    10.10000   128.31119   272.63971     0.03312    51.68881    87.36029     0.03312
    10.20000   128.30587   272.86190     0.03312    51.69413    87.13810     0.03312
    10.30000   128.30014   273.08404     0.03311    51.69986    86.91596     0.03311
    10.40000   128.29398   273.30614     0.03311    51.70602    86.69386     0.03311
    10.50000   128.28741   273.52819     0.03311    51.71259    86.47181     0.03311
    10.60000   128.28043   273.75018     0.03311    51.71957    86.24982     0.03311
    10.70000   128.27302   273.97210     0.03311    51.72698    86.02790     0.03311
    10.80000   128.26520   274.19395     0.03311    51.73480    85.80605     0.03311
    10.90000   128.25696   274.41572     0.03311    51.74304    85.58428     0.03311
    11.00000   128.24830   274.63741     0.03311    51.75170    85.36259     0.03311
    11.10000   128.23923   274.85900     0.03311    51.76077    85.14100     0.03311
    11.20000   128.22975   275.08050     0.03311    51.77025    84.91950     0.03311
    11.30000   128.21985   275.30189     0.03311    51.78015    84.69811     0.03311
    11.40000   128.20954   275.52316     0.03312    51.79046    84.47684     0.03312
    11.50000   128.19881   275.74432     0.03312    51.80119    84.25568     0.03312
    11.60000   128.18768   275.96535     0.03312    51.81232    84.03465     0.03312
    11.70000   128.17613   276.18626     0.03312    51.82387    83.81374     0.03312
    11.80000   128.16418   276.40702     0.03313    51.83582    83.59298     0.03313
    11.90000   128.15181   276.62764     0.03313    51.84819    83.37236     0.03313
    12.00000   128.13904   276.84811     0.03313    51.86096    83.15189     0.03313
    12.10000   128.12585   277.06843     0.03314    51.87415    82.93157     0.03314
    12.20000   128.11227   277.28858     0.03314    51.88773    82.71142     0.03314
    12.30000   128.09828   277.50856     0.03314    51.90172    82.49144     0.03314
    12.40000   128.08388   277.72836     0.03315    51.91612    82.27164     0.03315
    12.50000   128.06908   277.94798     0.03315    51.93092    82.05202     0.03315
    12.60000   128.05388   278.16742     0.03316    51.94612    81.83258     0.03316
    12.70000   128.03828   278.38666     0.03317    51.96172    81.61334     0.03317
    12.80000   128.02228   278.60570     0.03317    51.97772    81.39430     0.03317
    12.90000   128.00589   278.82453     0.03318    51.99411    81.17547     0.03318
    13.00000   127.98909   279.04315     0.03318    52.01091    80.95685     0.03318
    13.10000   127.97190   279.26156     0.03319    52.02810    80.73844     0.03319
    13.20000   127.95432   279.47974     0.03320    52.04568    80.52026     0.03320
    13.30000   127.93635   279.69768     0.03321    52.06365    80.30232     0.03321
    13.40000   127.91798   279.91539     0.03321    52.08202    80.08461     0.03321
    13.50000   127.89923   280.13286     0.03322    52.10077    79.86714     0.03322
    13.60000   127.88009   280.35008     0.03323    52.11991    79.64992     0.03323
    13.70000   127.86056   280.56705     0.03324    52.13944    79.43295     0.03324
    13.80000   127.84065   280.78376     0.03325    52.15935    79.21624     0.03325
    13.90000   127.82035   281.00020     0.03326    52.17965    78.99980     0.03326
    14.00000   127.79967   281.21637     0.03327    52.20033    78.78363     0.03327
    14.10000   127.77862   281.43226     0.03328    52.22138    78.56774     0.03328
    14.20000   127.75719   281.64788     0.03329    52.24281    78.35212     0.03329
    14.30000   127.73538   281.86320     0.03330    52.26462    78.13680     0.03330
    14.40000   127.71319   282.07823     0.03331    52.28681    77.92177     0.03331
    14.50000   127.69064   282.29296     0.03332    52.30936    77.70704     0.03332
    14.60000   127.66771   282.50739     0.03333    52.33229    77.49261     0.03333
    14.70000   127.64441   282.72151     0.03334    52.35559    77.27849     0.03334
    14.80000   127.62075   282.93531     0.03335    52.37925    77.06469     0.03335
    14.90000   127.59673   283.14880     0.03337    52.40327    76.85120     0.03337
    15.00000   127.57234   283.36196     0.03338    52.42766    76.63804     0.03338
    15.10000   127.54759   283.57479     0.03339    52.45241    76.42521     0.03339
    15.20000   127.52248   283.78728     0.03340    52.47752    76.21272     0.03340
    15.30000   127.49701   283.99944     0.03342    52.50299    76.00056     0.03342
    15.40000   127.47119   284.21125     0.03343    52.52881    75.78875     0.03343
    15.50000   127.44502   284.42270     0.03344    52.55498    75.57730     0.03344
    15.60000   127.41850   284.63381     0.03346    52.58150    75.36619     0.03346
    15.70000   127.39163   284.84455     0.03347    52.60837    75.15545     0.03347
    15.80000   127.36441   285.05493     0.03349    52.63559    74.94507     0.03349
    15.90000   127.33685   285.26494     0.03350    52.66315    74.73506     0.03350
    16.00000   127.30895   285.47458     0.03352    52.69105    74.52542     0.03352
    16.10000   127.28071   285.68384     0.03353    52.71929    74.31616     0.03353
    16.20000   127.25213   285.89271     0.03355    52.74787    74.10729     0.03355
    16.30000   127.22322   286.10120     0.03357    52.77678    73.89880     0.03357
    16.40000   127.19397   286.30930     0.03358    52.80603    73.69070     0.03358
    16.50000   127.16440   286.51700     0.03360    52.83560    73.48300     0.03360
    16.60000   127.13449   286.72430     0.03362    52.86551    73.27570     0.03362
    16.70000   127.10427   286.93119     0.03363    52.89573    73.06881     0.03363
    16.80000   127.07372   287.13768     0.03365    52.92628    72.86232     0.03365
    16.90000   127.04284   287.34375     0.03367    52.95716    72.65625     0.03367
    17.00000   127.01165   287.54941     0.03369    52.98835    72.45059     0.03369
    17.10000   126.98015   287.75464     0.03371    53.01985    72.24536     0.03371
    17.20000   126.94833   287.95945     0.03373    53.05167    72.04055     0.03373
    17.30000   126.91620   288.16383     0.03374    53.08380    71.83617     0.03374
    17.40000   126.88376   288.36778     0.03376    53.11624    71.63222     0.03376
    17.50000   126.85102   288.57129     0.03378    53.14898    71.42871     0.03378
    17.60000   126.81797   288.77437     0.03380    53.18203    71.22563     0.03380
    17.70000   126.78463   288.97699     0.03382    53.21537    71.02301     0.03382
    17.80000   126.75098   289.17918     0.03384    53.24902    70.82082     0.03384
    17.90000   126.71704   289.38091     0.03387    53.28296    70.61909     0.03387
    18.00000   126.68281   289.58218     0.03389    53.31719    70.41782     0.03389
    18.10000   126.64828   289.78300     0.03391    53.35172    70.21700     0.03391
    18.20000   126.61347   289.98336     0.03393    53.38653    70.01664     0.03393
    18.30000   126.57838   290.18325     0.03395    53.42162    69.81675     0.03395
    18.40000   126.54300   290.38268     0.03397    53.45700    69.61732     0.03397
    18.50000   126.50734   290.58163     0.03400    53.49266    69.41837     0.03400
    18.60000   126.47140   290.78011     0.03402    53.52860    69.21989     0.03402
    18.70000   126.43519   290.97811     0.03404    53.56481    69.02189     0.03404
    18.80000   126.39871   291.17564     0.03406    53.60129    68.82436     0.03406
    18.90000   126.36195   291.37268     0.03409    53.63805    68.62732     0.03409
    19.00000   126.32494   291.56924     0.03411    53.67506    68.43076     0.03411
    19.10000   126.28765   291.76530     0.03414    53.71235    68.23470     0.03414
    19.20000   126.25011   291.96088     0.03416    53.74989    68.03912     0.03416
    19.30000   126.21231   292.15596     0.03419    53.78769    67.84404     0.03419
    19.40000   126.17425   292.35055     0.03421    53.82575    67.64945     0.03421
    19.50000   126.13594   292.54464     0.03424    53.86406    67.45536     0.03424
    19.60000   126.09738   292.73822     0.03426    53.90262    67.26178     0.03426
    19.70000   126.05857   292.93131     0.03429    53.94143    67.06869     0.03429
    19.80000   126.01951   293.12388     0.03431    53.98049    66.87612     0.03431
    19.90000   125.98021   293.31595     0.03434    54.01979    66.68405     0.03434
    20.00000   125.94068   293.50751     0.03436    54.05932    66.49249     0.03436
    20.10000   125.90090   293.69855     0.03439    54.09910    66.30145     0.03439
    20.20000   125.86090   293.88908     0.03442    54.13910    66.11092     0.03442
    20.30000   125.82066   294.07909     0.03445    54.17934    65.92091     0.03445
    20.40000   125.78019   294.26858     0.03447    54.21981    65.73142     0.03447
    20.50000   125.73950   294.45755     0.03450    54.26050    65.54245     0.03450
    20.60000   125.69858   294.64600     0.03453    54.30142    65.35400     0.03453
    20.70000   125.65744   294.83392     0.03456    54.34256    65.16608     0.03456
    20.80000   125.61609   295.02131     0.03459    54.38391    64.97869     0.03459
    20.90000   125.57452   295.20818     0.03461    54.42548    64.79182     0.03461
    21.00000   125.53273   295.39451     0.03464    54.46727    64.60549     0.03464
    21.10000   125.49074   295.58032     0.03467    54.50926    64.41968     0.03467
    21.20000   125.44854   295.76559     0.03470    54.55146    64.23441     0.03470
    21.30000   125.40614   295.95032     0.03473    54.59386    64.04968     0.03473
    21.40000   125.36353   296.13452     0.03476    54.63647    63.86548     0.03476
    21.50000   125.32073   296.31818     0.03479    54.67927    63.68182     0.03479
    21.60000   125.27773   296.50130     0.03482    54.72227    63.49870     0.03482
    21.70000   125.23453   296.68388     0.03485    54.76547    63.31612     0.03485
    21.80000   125.19115   296.86591     0.03489    54.80885    63.13409     0.03489
    21.90000   125.14758   297.04741     0.03492    54.85242    62.95259     0.03492
    22.00000   125.10382   297.22836     0.03495    54.89618    62.77164     0.03495
    22.10000   125.05988   297.40876     0.03498    54.94012    62.59124     0.03498
    22.20000   125.01576   297.58862     0.03501    54.98424    62.41138     0.03501
    22.30000   124.97146   297.76793     0.03504    55.02854    62.23207     0.03504
    22.40000   124.92699   297.94669     0.03508    55.07301    62.05331     0.03508
    22.50000   124.88234   298.12490     0.03511    55.11766    61.87510     0.03511
    22.60000   124.83753   298.30256     0.03514    55.16247    61.69744     0.03514
    22.70000   124.79255   298.47966     0.03518    55.20745    61.52034     0.03518
    22.80000   124.74740   298.65622     0.03521    55.25260    61.34378     0.03521
    22.90000   124.70210   298.83222     0.03524    55.29790    61.16778     0.03524
    23.00000   124.65663   299.00767     0.03528    55.34337    60.99233     0.03528
    23.10000   124.61101   299.18257     0.03531    55.38899    60.81743     0.03531
    23.20000   124.56523   299.35691     0.03535    55.43477    60.64309     0.03535
    23.30000   124.51931   299.53070     0.03538    55.48069    60.46930     0.03538
    23.40000   124.47323   299.70392     0.03542    55.52677    60.29608     0.03542
    23.50000   124.42701   299.87660     0.03545    55.57299    60.12340     0.03545
    23.60000   124.38064   300.04871     0.03549    55.61936    59.95129     0.03549
    23.70000   124.33414   300.22027     0.03552    55.66586    59.77973     0.03552
    23.80000   124.28749   300.39127     0.03556    55.71251    59.60873     0.03556
    23.90000   124.24071   300.56172     0.03560    55.75929    59.43828     0.03560
    24.00000   124.19380   300.73160     0.03563    55.80620    59.26840     0.03563
    24.10000   124.14675   300.90093     0.03567    55.85325    59.09907     0.03567
    24.20000   124.09958   301.06970     0.03571    55.90042    58.93030     0.03571
    24.30000   124.05228   301.23790     0.03574    55.94772    58.76210     0.03574
    24.40000   124.00486   301.40556     0.03578    55.99514    58.59444     0.03578
    24.50000   123.95731   301.57265     0.03582    56.04269    58.42735     0.03582
    24.60000   123.90965   301.73918     0.03585    56.09035    58.26082     0.03585
    24.70000   123.86187   301.90515     0.03589    56.13813    58.09485     0.03589
    24.80000   123.81398   302.07057     0.03593    56.18602    57.92943     0.03593
    24.90000   123.76597   302.23543     0.03597    56.23403    57.76457     0.03597
    25.00000   123.71786   302.39972     0.03601    56.28214    57.60028     0.03601
    25.10000   123.66964   302.56346     0.03605    56.33036    57.43654     0.03605
    25.20000   123.62131   302.72665     0.03609    56.37869    57.27335     0.03609
    25.30000   123.57288   302.88927     0.03613    56.42712    57.11073     0.03613
    25.40000   123.52436   303.05133     0.03617    56.47564    56.94867     0.03617
    25.50000   123.47573   303.21284     0.03621    56.52427    56.78716     0.03621
    25.60000   123.42701   303.37379     0.03625    56.57299    56.62621     0.03625
    25.70000   123.37820   303.53419     0.03629    56.62180    56.46581     0.03629
    25.80000   123.32930   303.69403     0.03633    56.67070    56.30597     0.03633
    25.90000   123.28030   303.85331     0.03637    56.71970    56.14669     0.03637
    26.00000   123.23123   304.01204     0.03641    56.76877    55.98796     0.03641
    26.10000   123.18206   304.17021     0.03645    56.81794    55.82979     0.03645
    26.20000   123.13282   304.32783     0.03649    56.86718    55.67217     0.03649
    26.30000   123.08350   304.48489     0.03653    56.91650    55.51511     0.03653
    26.40000   123.03410   304.64140     0.03657    56.96590    55.35860     0.03657
    26.50000   122.98462   304.79736     0.03662    57.01538    55.20264     0.03662
    26.60000   122.93507   304.95276     0.03666    57.06493    55.04724     0.03666
    26.70000   122.88545   305.10762     0.03670    57.11455    54.89238     0.03670
    26.80000   122.83577   305.26192     0.03674    57.16423    54.73808     0.03674
    26.90000   122.78601   305.41568     0.03679    57.21399    54.58432     0.03679
    27.00000   122.73619   305.56888     0.03683    57.26381    54.43112     0.03683
    27.10000   122.68631   305.72154     0.03687    57.31369    54.27846     0.03687
    27.20000   122.63637   305.87365     0.03691    57.36363    54.12635     0.03691
    27.30000   122.58636   306.02521     0.03696    57.41364    53.97479     0.03696
    27.40000   122.53631   306.17622     0.03700    57.46369    53.82378     0.03700
    27.50000   122.48619   306.32669     0.03705    57.51381    53.67331     0.03705
    27.60000   122.43603   306.47662     0.03709    57.56397    53.52338     0.03709
    27.70000   122.38581   306.62600     0.03713    57.61419    53.37400     0.03713
    27.80000   122.33555   306.77484     0.03718    57.66445    53.22516     0.03718
    27.90000   122.28524   306.92314     0.03722    57.71476    53.07686     0.03722
    28.00000   122.23488   307.07090     0.03727    57.76512    52.92910     0.03727
    28.10000   122.18448   307.21812     0.03731    57.81552    52.78188     0.03731
    28.20000   122.13405   307.36481     0.03736    57.86595    52.63519     0.03736
    28.30000   122.08357   307.51095     0.03741    57.91643    52.48905     0.03741
    28.40000   122.03305   307.65656     0.03745    57.96695    52.34344     0.03745
    28.50000   121.98250   307.80163     0.03750    58.01750    52.19837     0.03750
    28.60000   121.93192   307.94617     0.03754    58.06808    52.05383     0.03754
    28.70000   121.88130   308.09018     0.03759    58.11870    51.90982     0.03759
    28.80000   121.83065   308.23365     0.03764    58.16935    51.76635     0.03764
    28.90000   121.77998   308.37659     0.03768    58.22002    51.62341     0.03768
    29.00000   121.72928   308.51901     0.03773    58.27072    51.48099     0.03773
    29.10000   121.67855   308.66090     0.03778    58.32145    51.33910     0.03778
    29.20000   121.62780   308.80225     0.03783    58.37220    51.19775     0.03783
    29.30000   121.57703   308.94309     0.03787    58.42297    51.05691     0.03787
    29.40000   121.52624   309.08340     0.03792    58.47376    50.91660     0.03792
    29.50000   121.47543   309.22318     0.03797    58.52457    50.77682     0.03797
    29.60000   121.42461   309.36245     0.03802    58.57539    50.63755     0.03802
    29.70000   121.37377   309.50119     0.03806    58.62623    50.49881     0.03806
    29.80000   121.32292   309.63941     0.03811    58.67708    50.36059     0.03811
    29.90000   121.27205   309.77712     0.03816    58.72795    50.22288     0.03816
    30.00000   121.22118   309.91431     0.03821    58.77882    50.08569     0.03821
    30.10000   121.17030   310.05098     0.03826    58.82970    49.94902     0.03826
    30.20000   121.11941   310.18714     0.03831    58.88059    49.81286     0.03831
    30.30000   121.06852   310.32279     0.03836    58.93148    49.67721     0.03836
    30.40000   121.01762   310.45793     0.03841    58.98238    49.54207     0.03841
    30.50000   120.96672   310.59255     0.03846    59.03328    49.40745     0.03846
    30.60000   120.91582   310.72667     0.03851    59.08418    49.27333     0.03851
    30.70000   120.86492   310.86028     0.03856    59.13508    49.13972     0.03856
    30.80000   120.81403   310.99339     0.03861    59.18597    49.00661     0.03861
    30.90000   120.76313   311.12599     0.03866    59.23687    48.87401     0.03866
    31.00000   120.71225   311.25809     0.03871    59.28775    48.74191     0.03871
    31.10000   120.66136   311.38969     0.03876    59.33864    48.61031     0.03876
    31.20000   120.61049   311.52078     0.03881    59.38951    48.47922     0.03881
    31.30000   120.55963   311.65138     0.03886    59.44037    48.34862     0.03886
    31.40000   120.50877   311.78149     0.03891    59.49123    48.21851     0.03891
    31.50000   120.45793   311.91110     0.03897    59.54207    48.08890     0.03897
    31.60000   120.40710   312.04021     0.03902    59.59290    47.95979     0.03902
    31.70000   120.35629   312.16883     0.03907    59.64371    47.83117     0.03907
    31.80000   120.30549   312.29697     0.03912    59.69451    47.70303     0.03912
    31.90000   120.25471   312.42461     0.03917    59.74529    47.57539     0.03917
    32.00000   120.20395   312.55176     0.03923    59.79605    47.44824     0.03923
    32.10000   120.15321   312.67843     0.03928    59.84679    47.32157     0.03928
    32.20000   120.10249   312.80462     0.03933    59.89751    47.19538     0.03933
    32.30000   120.05179   312.93032     0.03938    59.94821    47.06968     0.03938
    32.40000   120.00112   313.05554     0.03944    59.99888    46.94446     0.03944
    32.50000   119.95047   313.18028     0.03949    60.04953    46.81972     0.03949
    32.60000   119.89985   313.30455     0.03954    60.10015    46.69545     0.03954
    32.70000   119.84925   313.42833     0.03960    60.15075    46.57167     0.03960
    32.80000   119.79868   313.55164     0.03965    60.20132    46.44836     0.03965
    32.90000   119.74814   313.67448     0.03970    60.25186    46.32552     0.03970
    33.00000   119.69763   313.79685     0.03976    60.30237    46.20315     0.03976
    33.10000   119.64716   313.91875     0.03981    60.35284    46.08125     0.03981
    33.20000   119.59671   314.04017     0.03987    60.40329    45.95983     0.03987
    33.30000   119.54630   314.16114     0.03992    60.45370    45.83886     0.03992
    33.40000   119.49593   314.28163     0.03998    60.50407    45.71837     0.03998
    33.50000   119.44559   314.40167     0.04003    60.55441    45.59833     0.04003
    33.60000   119.39528   314.52124     0.04009    60.60472    45.47876     0.04009
    33.70000   119.34502   314.64035     0.04014    60.65498    45.35965     0.04014
    33.80000   119.29479   314.75900     0.04020    60.70521    45.24100     0.04020
    33.90000   119.24461   314.87719     0.04025    60.75539    45.12281     0.04025
    34.00000   119.19446   314.99493     0.04031    60.80554    45.00507     0.04031
    34.10000   119.14436   315.11222     0.04036    60.85564    44.88778     0.04036
    34.20000   119.09430   315.22905     0.04042    60.90570    44.77095     0.04042
    34.30000   119.04428   315.34544     0.04047    60.95572    44.65456     0.04047
    34.40000   118.99431   315.46137     0.04053    61.00569    44.53863     0.04053
    34.50000   118.94439   315.57686     0.04059    61.05561    44.42314     0.04059
    34.60000   118.89451   315.69190     0.04064    61.10549    44.30810     0.04064
    34.70000   118.84468   315.80650     0.04070    61.15532    44.19350     0.04070
    34.80000   118.79490   315.92066     0.04076    61.20510    44.07934     0.04076
    34.90000   118.74516   316.03437     0.04081    61.25484    43.96563     0.04081
    35.00000   118.69548   316.14765     0.04087    61.30452    43.85235     0.04087
    35.10000   118.64585   316.26049     0.04093    61.35415    43.73951     0.04093
    35.20000   118.59627   316.37289     0.04099    61.40373    43.62711     0.04099
    35.30000   118.54674   316.48487     0.04104    61.45326    43.51513     0.04104
    35.40000   118.49726   316.59640     0.04110    61.50274    43.40360     0.04110
    35.50000   118.44784   316.70751     0.04116    61.55216    43.29249     0.04116
    35.60000   118.39848   316.81819     0.04122    61.60152    43.18181     0.04122
    35.70000   118.34917   316.92844     0.04127    61.65083    43.07156     0.04127
    35.80000   118.29992   317.03827     0.04133    61.70008    42.96173     0.04133
    35.90000   118.25072   317.14767     0.04139    61.74928    42.85233     0.04139
    36.00000   118.20158   317.25666     0.04145    61.79842    42.74334     0.04145
    36.10000   118.15250   317.36522     0.04151    61.84750    42.63478     0.04151
    36.20000   118.10348   317.47336     0.04157    61.89652    42.52664     0.04157
    36.30000   118.05453   317.58108     0.04163    61.94547    42.41892     0.04163
    36.40000   118.00563   317.68839     0.04169    61.99437    42.31161     0.04169
    36.50000   117.95679   317.79529     0.04174    62.04321    42.20471     0.04174
    36.60000   117.90802   317.90177     0.04180    62.09198    42.09823     0.04180
    36.70000   117.85930   318.00784     0.04186    62.14070    41.99216     0.04186
    36.80000   117.81066   318.11351     0.04192    62.18934    41.88649     0.04192
    36.90000   117.76207   318.21877     0.04198    62.23793    41.78123     0.04198
    37.00000   117.71355   318.32362     0.04204    62.28645    41.67638     0.04204
    37.10000   117.66510   318.42806     0.04210    62.33490    41.57194     0.04210
    37.20000   117.61671   318.53211     0.04216    62.38329    41.46789     0.04216
    37.30000   117.56839   318.63576     0.04222    62.43161    41.36424     0.04222
    37.40000   117.52014   318.73900     0.04228    62.47986    41.26100     0.04228
    37.50000   117.47195   318.84185     0.04234    62.52805    41.15815     0.04234
    37.60000   117.42383   318.94430     0.04240    62.57617    41.05570     0.04240
    37.70000   117.37578   319.04636     0.04246    62.62422    40.95364     0.04246
    37.80000   117.32780   319.14803     0.04253    62.67220    40.85197     0.04253
    37.90000   117.27989   319.24930     0.04259    62.72011    40.75070     0.04259
    38.00000   117.23205   319.35019     0.04265    62.76795    40.64981     0.04265
    38.10000   117.18429   319.45069     0.04271    62.81571    40.54931     0.04271
    38.20000   117.13659   319.55080     0.04277    62.86341    40.44920     0.04277
    38.30000   117.08896   319.65053     0.04283    62.91104    40.34947     0.04283
    38.40000   117.04141   319.74988     0.04289    62.95859    40.25012     0.04289
    38.50000   116.99393   319.84885     0.04296    63.00607    40.15115     0.04296
    38.60000   116.94653   319.94743     0.04302    63.05347    40.05257     0.04302
    38.70000   116.89919   320.04564     0.04308    63.10081    39.95436     0.04308
    38.80000   116.85194   320.14347     0.04314    63.14806    39.85653     0.04314
    38.90000   116.80475   320.24093     0.04320    63.19525    39.75907     0.04320
    39.00000   116.75764   320.33802     0.04327    63.24236    39.66198     0.04327
    39.10000   116.71061   320.43473     0.04333    63.28939    39.56527     0.04333
    39.20000   116.66366   320.53107     0.04339    63.33634    39.46893     0.04339
    39.30000   116.61678   320.62705     0.04345    63.38322    39.37295     0.04345
    39.40000   116.56997   320.72266     0.04352    63.43003    39.27734     0.04352
    39.50000   116.52325   320.81790     0.04358    63.47675    39.18210     0.04358
    39.60000   116.47660   320.91278     0.04364    63.52340    39.08722     0.04364
    39.70000   116.43003   321.00730     0.04371    63.56997    38.99270     0.04371
    39.80000   116.38354   321.10146     0.04377    63.61646    38.89854     0.04377
    39.90000   116.33712   321.19525     0.04383    63.66288    38.80475     0.04383
    40.00000   116.29079   321.28870     0.04390    63.70921    38.71130     0.04390
