 # applied field (T), theta (degree), phi (degree), abs
     0.00000     0.00000     0.00000    39.87016
     0.10000     0.34395     0.00000    39.87016
     0.20000     0.63057     0.00000    39.87016
     0.30000     0.97452     0.00000    39.87016
     0.40000     1.26115     0.00000    39.87016
     0.50000     1.60510     0.00000    39.87016
     0.60000     1.94904     0.00000    39.87016
     0.70000     2.23567     0.00000    39.87016
     0.80000     2.57962     0.00000    39.87016
     0.90000     2.92357     0.00000    39.87016
     1.00000     3.21019     0.00000    39.87016
     1.10000     3.55414     0.00000    39.87016
     1.20000     3.84076     0.00000    39.87016
     1.30000     4.18471     0.00000    39.87016
     1.40000     4.52866     0.00000    39.87016
     1.50000     4.81529     0.00000    39.87016
     1.60000     5.15924     0.00000    39.87016
     1.70000     5.50318     0.00000    39.87016
     1.80000     5.78981     0.00000    39.87016
     1.90000     6.13376     0.00000    39.87016
     2.00000     6.42038     0.00000    39.87016
     2.10000     6.76433     0.00000    39.87016
     2.20000     7.10828     0.00000    39.87016
     2.30000     7.39490     0.00000    39.87016
     2.40000     7.73885     0.00000    39.87016
     2.50000     8.08280     0.00000    39.87016
     2.60000     8.36943     0.00000    39.87016
     2.70000     8.71338     0.00000    39.87016
     2.80000     9.05732     0.00000    39.87016
     2.90000     9.34395     0.00000    39.87016
     3.00000     9.68790     0.00000    39.87016
     3.10000    10.03185     0.00000    39.87016
     3.20000    10.31847     0.00000    39.87016
     3.30000    10.66242     0.00000    39.87016
     3.40000    11.00637     0.00000    39.87016
     3.50000    11.29299     0.00000    39.87016
     3.60000    11.63694     0.00000    39.87016
     3.70000    11.98089     0.00000    39.87016
     3.80000    12.26752     0.00000    39.87016
     3.90000    12.61146     0.00000    39.87016
     4.00000    12.95541     0.00000    39.87016
     4.10000    13.24204     0.00000    39.87016
     4.20000    13.58599     0.00000    39.87016
     4.30000    13.92994     0.00000    39.87016
     4.40000    14.21656     0.00000    39.87016
     4.50000    14.56051     0.00000    39.87016
     4.60000    14.90446     0.00000    39.87016
     4.70000    15.24841     0.00000    39.87016
     4.80000    15.53503     0.00000    39.87016
     4.90000    15.87898     0.00000    39.87016
     5.00000    16.22293     0.00000    39.87016
     5.10000    16.56688     0.00000    39.87016
     5.20000    16.85350     0.00000    39.87016
     5.30000    17.19745     0.00000    39.87016
     5.40000    17.54140     0.00000    39.87016
     5.50000    17.88535     0.00000    39.87016
     5.60000    18.17197     0.00000    39.87016
     5.70000    18.51592     0.00000    39.87016
     5.80000    18.85987     0.00000    39.87016
     5.90000    19.20382     0.00000    39.87016
     6.00000    19.54777     0.00000    39.87016
     6.10000    19.83439     0.00000    39.87016
     6.20000    20.17834     0.00000    39.87016
     6.30000    20.52229     0.00000    39.87016
     6.40000    20.86624     0.00000    39.87016
     6.50000    21.21019     0.00000    39.87016
     6.60000    21.49682     0.00000    39.87016
     6.70000    21.84076     0.00000    39.87016
     6.80000    22.18471     0.00000    39.87016
     6.90000    22.52866     0.00000    39.87016
     7.00000    22.87261     0.00000    39.87016
     7.10000    23.21656     0.00000    39.87016
     7.20000    23.56051     0.00000    39.87016
     7.30000    23.90446     0.00000    39.87016
     7.40000    24.19108     0.00000    39.87016
     7.50000    24.53503     0.00000    39.87016
     7.60000    24.87898     0.00000    39.87016
     7.70000    25.22293     0.00000    39.87016
     7.80000    25.56688     0.00000    39.87016
     7.90000    25.91083     0.00000    39.87016
     8.00000    26.25478     0.00000    39.87016
     8.10000    26.59873     0.00000    39.87016
     8.20000    26.94268     0.00000    39.87016
     8.30000    27.28662     0.00000    39.87016
     8.40000    27.63057     0.00000    39.87016
     8.50000    27.97452     0.00000    39.87016
     8.60000    28.31847     0.00000    39.87016
     8.70000    28.66242     0.00000    39.87016
     8.80000    29.00637     0.00000    39.87016
     8.90000    29.35032     0.00000    39.87016
     9.00000    29.69427     0.00000    39.87016
     9.10000    30.03822     0.00000    39.87016
     9.20000    30.43949     0.00000    39.87016
     9.30000    30.78344     0.00000    39.87016
     9.40000    31.12739     0.00000    39.87016
     9.50000    31.47134     0.00000    39.87016
     9.60000    31.81529     0.00000    39.87016
     9.70000    32.15924     0.00000    39.87016
     9.80000    32.56051     0.00000    39.87016
     9.90000    32.90446     0.00000    39.87016
    10.00000    33.24841     0.00000    39.87016
    10.10000    33.59236     0.00000    39.87016
    10.20000    33.99363     0.00000    39.87016
    10.30000    34.33758     0.00000    39.87016
    10.40000    34.68153     0.00000    39.87016
    10.50000    35.02548     0.00000    39.87016
    10.60000    35.42675     0.00000    39.87016
    10.70000    35.77070     0.00000    39.87016
    10.80000    36.17197     0.00000    39.87016
    10.90000    36.51592     0.00000    39.87016
    11.00000    36.85987     0.00000    39.87016
    11.10000    37.26115     0.00000    39.87016
    11.20000    37.60510     0.00000    39.87016
    11.30000    38.00637     0.00000    39.87016
    11.40000    38.35032     0.00000    39.87016
    11.50000    38.75159     0.00000    39.87016
    11.60000    39.09554     0.00000    39.87016
    11.70000    39.49682     0.00000    39.87016
    11.80000    39.89809     0.00000    39.87016
    11.90000    40.24204     0.00000    39.87016
    12.00000    40.64331     0.00000    39.87016
    12.10000    41.04459     0.00000    39.87016
    12.20000    41.38854     0.00000    39.87016
    12.30000    41.78981     0.00000    39.87016
    12.40000    42.19108     0.00000    39.87016
    12.50000    42.59236     0.00000    39.87016
    12.60000    42.93631     0.00000    39.87016
    12.70000    43.33758     0.00000    39.87016
    12.80000    43.73885     0.00000    39.87016
    12.90000    44.14013     0.00000    39.87016
    13.00000    44.54140     0.00000    39.87016
    13.10000    44.94268     0.00000    39.87016
    13.20000    45.34395     0.00000    39.87016
    13.30000    45.74522     0.00000    39.87016
    13.40000    46.14650     0.00000    39.87016
    13.50000    46.60510     0.00000    39.87016
    13.60000    47.00637     0.00000    39.87016
    13.70000    47.40764     0.00000    39.87016
    13.80000    47.80892     0.00000    39.87016
    13.90000    48.26752     0.00000    39.87016
    14.00000    48.66879     0.00000    39.87016
    14.10000    49.12739     0.00000    39.87016
    14.20000    49.52866     0.00000    39.87016
    14.30000    49.98726     0.00000    39.87016
    14.40000    50.38854     0.00000    39.87016
    14.50000    50.84713     0.00000    39.87016
    14.60000    51.30573     0.00000    39.87016
    14.70000    51.70701     0.00000    39.87016
    14.80000    52.16561     0.00000    39.87016
    14.90000    52.62420     0.00000    39.87016
    15.00000    53.08280     0.00000    39.87016
    15.10000    53.54140     0.00000    39.87016
    15.20000    54.00000     0.00000    39.87016
    15.30000    54.45860     0.00000    39.87016
    15.40000    54.97452     0.00000    39.87016
    15.50000    55.43312     0.00000    39.87016
    15.60000    55.89172     0.00000    39.87016
    15.70000    56.40764     0.00000    39.87016
    15.80000    56.92357     0.00000    39.87016
    15.90000    57.38217     0.00000    39.87016
    16.00000    57.89809     0.00000    39.87016
    16.10000    58.41401     0.00000    39.87016
    16.20000    58.92994     0.00000    39.87016
    16.30000    59.44586     0.00000    39.87016
    16.40000    60.01911     0.00000    39.87016
    16.50000    60.53503     0.00000    39.87016
    16.60000    61.05096     0.00000    39.87016
    16.70000    61.62420     0.00000    39.87016
    16.80000    62.19745     0.00000    39.87016
    16.90000    62.77070     0.00000    39.87016
    17.00000    63.34395     0.00000    39.87016
    17.10000    63.97452     0.00000    39.87016
    17.20000    64.54777     0.00000    39.87016
    17.30000    65.17834     0.00000    39.87016
    17.40000    65.80892     0.00000    39.87016
    17.50000    66.43949     0.00000    39.87016
    17.60000    67.12739     0.00000    39.87016
    17.70000    67.81529     0.00000    39.87016
    17.80000    68.50318     0.00000    39.87016
    17.90000    69.24841     0.00000    39.87016
    18.00000    69.99363     0.00000    39.87016
    18.10000    70.73885     0.00000    39.87016
    18.20000    71.54140     0.00000    39.87016
    18.30000    72.40127     0.00000    39.87016
    18.40000    73.26115     0.00000    39.87016
    18.50000    74.17834     0.00000    39.87016
    18.60000    75.15287     0.00000    39.87016
    18.70000    76.18471     0.00000    39.87016
    18.80000    77.27389     0.00000    39.87016
    18.90000    78.47771     0.00000    39.87016
    19.00000    79.85350     0.00000    39.87016
    19.10000    81.40127     0.00000    39.87016
    19.20000    83.29299     0.00000    39.87016
    19.30000    85.92994     0.00000    39.87016
    19.40000    90.00000     0.00000    39.87016
    19.50000    90.00000     0.00000    39.87016
    19.60000    90.00000     0.00000    39.87016
    19.70000    90.00000     0.00000    39.87016
    19.80000    90.00000     0.00000    39.87016
    19.90000    90.00000     0.00000    39.87016
    20.00000    90.00000     0.00000    39.87016
    20.10000    90.00000     0.00000    39.87016
    20.20000    90.00000     0.00000    39.87016
    20.30000    90.00000     0.00000    39.87016
    20.40000    90.00000     0.00000    39.87016
    20.50000    90.00000     0.00000    39.87016
    20.60000    90.00000     0.00000    39.87016
    20.70000    90.00000     0.00000    39.87016
    20.80000    90.00000     0.00000    39.87016
    20.90000    90.00000     0.00000    39.87016
    21.00000    90.00000     0.00000    39.87016
    21.10000    90.00000     0.00000    39.87016
    21.20000    90.00000     0.00000    39.87016
    21.30000    90.00000     0.00000    39.87016
    21.40000    90.00000     0.00000    39.87016
    21.50000    90.00000     0.00000    39.87016
    21.60000    90.00000     0.00000    39.87016
    21.70000    90.00000     0.00000    39.87016
    21.80000    90.00000     0.00000    39.87016
    21.90000    90.00000     0.00000    39.87016
    22.00000    90.00000     0.00000    39.87016
    22.10000    90.00000     0.00000    39.87016
    22.20000    90.00000     0.00000    39.87016
    22.30000    90.00000     0.00000    39.87016
    22.40000    90.00000     0.00000    39.87016
    22.50000    90.00000     0.00000    39.87016
    22.60000    90.00000     0.00000    39.87016
    22.70000    90.00000     0.00000    39.87016
    22.80000    90.00000     0.00000    39.87016
    22.90000    90.00000     0.00000    39.87016
    23.00000    90.00000     0.00000    39.87016
    23.10000    90.00000     0.00000    39.87016
    23.20000    90.00000     0.00000    39.87016
    23.30000    90.00000     0.00000    39.87016
    23.40000    90.00000     0.00000    39.87016
    23.50000    90.00000     0.00000    39.87016
    23.60000    90.00000     0.00000    39.87016
    23.70000    90.00000     0.00000    39.87016
    23.80000    90.00000     0.00000    39.87016
    23.90000    90.00000     0.00000    39.87016
    24.00000    90.00000     0.00000    39.87016
    24.10000    90.00000     0.00000    39.87016
    24.20000    90.00000     0.00000    39.87016
    24.30000    90.00000     0.00000    39.87016
    24.40000    90.00000     0.00000    39.87016
    24.50000    90.00000     0.00000    39.87016
    24.60000    90.00000     0.00000    39.87016
    24.70000    90.00000     0.00000    39.87016
    24.80000    90.00000     0.00000    39.87016
    24.90000    90.00000     0.00000    39.87016
    25.00000    90.00000     0.00000    39.87016
    25.10000    90.00000     0.00000    39.87016
    25.20000    90.00000     0.00000    39.87016
    25.30000    90.00000     0.00000    39.87016
    25.40000    90.00000     0.00000    39.87016
    25.50000    90.00000     0.00000    39.87016
    25.60000    90.00000     0.00000    39.87016
    25.70000    90.00000     0.00000    39.87016
    25.80000    90.00000     0.00000    39.87016
    25.90000    90.00000     0.00000    39.87016
    26.00000    90.00000     0.00000    39.87016
    26.10000    90.00000     0.00000    39.87016
    26.20000    90.00000     0.00000    39.87016
    26.30000    90.00000     0.00000    39.87016
    26.40000    90.00000     0.00000    39.87016
    26.50000    90.00000     0.00000    39.87016
    26.60000    90.00000     0.00000    39.87016
    26.70000    90.00000     0.00000    39.87016
    26.80000    90.00000     0.00000    39.87016
    26.90000    90.00000     0.00000    39.87016
    27.00000    90.00000     0.00000    39.87016
    27.10000    90.00000     0.00000    39.87016
    27.20000    90.00000     0.00000    39.87016
    27.30000    90.00000     0.00000    39.87016
    27.40000    90.00000     0.00000    39.87016
    27.50000    90.00000     0.00000    39.87016
    27.60000    90.00000     0.00000    39.87016
    27.70000    90.00000     0.00000    39.87016
    27.80000    90.00000     0.00000    39.87016
    27.90000    90.00000     0.00000    39.87016
    28.00000    90.00000     0.00000    39.87016
    28.10000    90.00000     0.00000    39.87016
    28.20000    90.00000     0.00000    39.87016
    28.30000    90.00000     0.00000    39.87016
    28.40000    90.00000     0.00000    39.87016
    28.50000    90.00000     0.00000    39.87016
    28.60000    90.00000     0.00000    39.87016
    28.70000    90.00000     0.00000    39.87016
    28.80000    90.00000     0.00000    39.87016
    28.90000    90.00000     0.00000    39.87016
    29.00000    90.00000     0.00000    39.87016
    29.10000    90.00000     0.00000    39.87016
    29.20000    90.00000     0.00000    39.87016
    29.30000    90.00000     0.00000    39.87016
    29.40000    90.00000     0.00000    39.87016
    29.50000    90.00000     0.00000    39.87016
    29.60000    90.00000     0.00000    39.87016
    29.70000    90.00000     0.00000    39.87016
    29.80000    90.00000     0.00000    39.87016
    29.90000    90.00000     0.00000    39.87016
    30.00000    90.00000     0.00000    39.87016
    30.10000    90.00000     0.00000    39.87016
    30.20000    90.00000     0.00000    39.87016
    30.30000    90.00000     0.00000    39.87016
    30.40000    90.00000     0.00000    39.87016
    30.50000    90.00000     0.00000    39.87016
    30.60000    90.00000     0.00000    39.87016
    30.70000    90.00000     0.00000    39.87016
    30.80000    90.00000     0.00000    39.87016
    30.90000    90.00000     0.00000    39.87016
    31.00000    90.00000     0.00000    39.87016
    31.10000    90.00000     0.00000    39.87016
    31.20000    90.00000     0.00000    39.87016
    31.30000    90.00000     0.00000    39.87016
    31.40000    90.00000     0.00000    39.87016
    31.50000    90.00000     0.00000    39.87016
    31.60000    90.00000     0.00000    39.87016
    31.70000    90.00000     0.00000    39.87016
    31.80000    90.00000     0.00000    39.87016
    31.90000    90.00000     0.00000    39.87016
    32.00000    90.00000     0.00000    39.87016
    32.10000    90.00000     0.00000    39.87016
    32.20000    90.00000     0.00000    39.87016
    32.30000    90.00000     0.00000    39.87016
    32.40000    90.00000     0.00000    39.87016
    32.50000    90.00000     0.00000    39.87016
    32.60000    90.00000     0.00000    39.87016
    32.70000    90.00000     0.00000    39.87016
    32.80000    90.00000     0.00000    39.87016
    32.90000    90.00000     0.00000    39.87016
    33.00000    90.00000     0.00000    39.87016
    33.10000    90.00000     0.00000    39.87016
    33.20000    90.00000     0.00000    39.87016
    33.30000    90.00000     0.00000    39.87016
    33.40000    90.00000     0.00000    39.87016
    33.50000    90.00000     0.00000    39.87016
    33.60000    90.00000     0.00000    39.87016
    33.70000    90.00000     0.00000    39.87016
    33.80000    90.00000     0.00000    39.87016
    33.90000    90.00000     0.00000    39.87016
    34.00000    90.00000     0.00000    39.87016
    34.10000    90.00000     0.00000    39.87016
    34.20000    90.00000     0.00000    39.87016
    34.30000    90.00000     0.00000    39.87016
    34.40000    90.00000     0.00000    39.87016
    34.50000    90.00000     0.00000    39.87016
    34.60000    90.00000     0.00000    39.87016
    34.70000    90.00000     0.00000    39.87016
    34.80000    90.00000     0.00000    39.87016
    34.90000    90.00000     0.00000    39.87016
    35.00000    90.00000     0.00000    39.87016
    35.10000    90.00000     0.00000    39.87016
    35.20000    90.00000     0.00000    39.87016
    35.30000    90.00000     0.00000    39.87016
    35.40000    90.00000     0.00000    39.87016
    35.50000    90.00000     0.00000    39.87016
    35.60000    90.00000     0.00000    39.87016
    35.70000    90.00000     0.00000    39.87016
    35.80000    90.00000     0.00000    39.87016
    35.90000    90.00000     0.00000    39.87016
    36.00000    90.00000     0.00000    39.87016
    36.10000    90.00000     0.00000    39.87016
    36.20000    90.00000     0.00000    39.87016
    36.30000    90.00000     0.00000    39.87016
    36.40000    90.00000     0.00000    39.87016
    36.50000    90.00000     0.00000    39.87016
    36.60000    90.00000     0.00000    39.87016
    36.70000    90.00000     0.00000    39.87016
    36.80000    90.00000     0.00000    39.87016
    36.90000    90.00000     0.00000    39.87016
    37.00000    90.00000     0.00000    39.87016
    37.10000    90.00000     0.00000    39.87016
    37.20000    90.00000     0.00000    39.87016
    37.30000    90.00000     0.00000    39.87016
    37.40000    90.00000     0.00000    39.87016
    37.50000    90.00000     0.00000    39.87016
    37.60000    90.00000     0.00000    39.87016
    37.70000    90.00000     0.00000    39.87016
    37.80000    90.00000     0.00000    39.87016
    37.90000    90.00000     0.00000    39.87016
    38.00000    90.00000     0.00000    39.87016
    38.10000    90.00000     0.00000    39.87016
    38.20000    90.00000     0.00000    39.87016
    38.30000    90.00000     0.00000    39.87016
    38.40000    90.00000     0.00000    39.87016
    38.50000    90.00000     0.00000    39.87016
    38.60000    90.00000     0.00000    39.87016
    38.70000    90.00000     0.00000    39.87016
    38.80000    90.00000     0.00000    39.87016
    38.90000    90.00000     0.00000    39.87016
    39.00000    90.00000     0.00000    39.87016
    39.10000    90.00000     0.00000    39.87016
    39.20000    90.00000     0.00000    39.87016
    39.30000    90.00000     0.00000    39.87016
    39.40000    90.00000     0.00000    39.87016
    39.50000    90.00000     0.00000    39.87016
    39.60000    90.00000     0.00000    39.87016
    39.70000    90.00000     0.00000    39.87016
    39.80000    90.00000     0.00000    39.87016
    39.90000    90.00000     0.00000    39.87016
    40.00000    90.00000     0.00000    39.87016
