 # applied field (T), theta (degree), phi (degree), abs [muB/unitcell], abs [T]
       0.00000000       0.00000000       0.00000000      43.66557114       1.50250790
       0.10000000       0.85716697     360.00000000      43.66554097       1.50250686
       0.20000000       1.71433780     360.00000000      43.66545048       1.50250374
       0.30000000       2.62862188     360.00000000      43.66528695       1.50249812
       0.40000000       3.48581289     360.00000000      43.66507225       1.50249073
       0.50000000       4.34301950     360.00000000      43.66479810       1.50248130
       0.60000000       5.20024550     360.00000000      43.66446501       1.50246984
       0.70000000       6.11460557     360.00000000      43.66404370       1.50245534
       0.80000000       6.97188345     360.00000000      43.66359058       1.50243975
       0.90000000       7.82919201     360.00000000      43.66308072       1.50242220
       1.00000000       8.74365262     360.00000000      43.66247289       1.50240129
       1.10000000       9.60103585     360.00000000      43.66184854       1.50237980
       1.20000000      10.51558416     360.00000000      43.66112055       1.50235475
       1.30000000      11.43018378     360.00000000      43.66033255       1.50232764
       1.40000000      12.34483863     360.00000000      43.65948613       1.50229851
       1.50000000      13.25955252     360.00000000      43.65858301       1.50226744
       1.60000000      14.17432912     360.00000000      43.65762502       1.50223447
       1.70000000      15.08917192     360.00000000      43.65661408       1.50219969
       1.80000000      16.00408431     360.00000000      43.65555220       1.50216315
       1.90000000      16.91906947     360.00000000      43.65444150       1.50212493
       2.00000000      17.89128844     360.00000000      43.65320566       1.50208241
       2.10000000      18.86359678     360.00000000      43.65191942       1.50203815
       2.20000000      19.83599773     360.00000000      43.65058561       1.50199225
       2.30000000      20.80849426     360.00000000      43.64920713       1.50194482
       2.40000000      21.78108914     360.00000000      43.64778696       1.50189595
       2.50000000      22.81097263     360.00000000      43.64623563       1.50184257
       2.60000000      23.78377777     360.00000000      43.64473906       1.50179108
       2.70000000      24.81388910     360.00000000      43.64311337       1.50173514
       2.80000000      25.90132929     360.00000000      43.64135592       1.50167466
       2.90000000      26.93169039     360.00000000      43.63966670       1.50161654
       3.00000000      28.01939824     360.00000000      43.63785026       1.50155404
       3.10000000      29.10724573     360.00000000      43.63601005       1.50149072
       3.20000000      30.25247253     360.00000000      43.63404578       1.50142313
       3.30000000      31.39785618     360.00000000      43.63206494       1.50135497
       3.40000000      32.60065227     360.00000000      43.62996627       1.50128275
       3.50000000      33.80362157     360.00000000      43.62786048       1.50121029
       3.60000000      35.00676309     360.00000000      43.62575335       1.50113779
       3.70000000      36.26735672     360.00000000      43.62354368       1.50106175
       3.80000000      37.58542657     360.00000000      43.62123822       1.50098243
       3.90000000      38.90369676     360.00000000      43.61895087       1.50090372
       4.00000000      40.33678114     360.00000000      43.61647915       1.50081867
       4.10000000      41.77009312     360.00000000      43.61404400       1.50073488
       4.20000000      43.26095392     360.00000000      43.61155175       1.50064912
       4.30000000      44.80938348     360.00000000      43.60901584       1.50056186
       4.40000000      46.41539997     360.00000000      43.60645108       1.50047361
       4.50000000      48.13637606     360.00000000      43.60378004       1.50038170
       4.60000000      49.91498728     360.00000000      43.60112022       1.50029018
       4.70000000      51.86599481     360.00000000      43.59831869       1.50019378
       4.80000000      53.87468974     360.00000000      43.59558459       1.50009970
       4.90000000      56.11325471     360.00000000      43.59271062       1.50000081
       5.00000000      58.52435966     360.00000000      43.58983847       1.49990198
       5.10000000      61.16545073     360.00000000      43.58696366       1.49980306
       5.20000000      64.20883393     360.00000000      43.58399911       1.49970105
       5.30000000      67.71202873     360.00000000      43.58105441       1.49959972
       5.40000000      72.01972065     360.00000000      43.57809662       1.49949795
       5.50000000      77.99366183     360.00000000      43.57514085       1.49939624
       5.60000000      90.00000000     360.00000000      43.57290325       1.49931925
       5.70000000      90.00000000     360.00000000      43.57314807       1.49932767
       5.80000000      90.00000000     360.00000000      43.57339286       1.49933609
       5.90000000      90.00000000     360.00000000      43.57363763       1.49934452
       6.00000000      90.00000000     360.00000000      43.57388238       1.49935294
       6.10000000      90.00000000     360.00000000      43.57412711       1.49936136
       6.20000000      90.00000000     360.00000000      43.57437181       1.49936978
       6.30000000      90.00000000     360.00000000      43.57461649       1.49937820
       6.40000000      90.00000000     360.00000000      43.57486115       1.49938662
       6.50000000      90.00000000     360.00000000      43.57510579       1.49939503
       6.60000000      90.00000000     360.00000000      43.57535040       1.49940345
       6.70000000      90.00000000     360.00000000      43.57559499       1.49941187
       6.80000000      90.00000000     360.00000000      43.57583956       1.49942028
       6.90000000      90.00000000     360.00000000      43.57608411       1.49942870
       7.00000000      90.00000000     360.00000000      43.57632863       1.49943711
       7.10000000      90.00000000     360.00000000      43.57657313       1.49944552
       7.20000000      90.00000000     360.00000000      43.57681761       1.49945394
       7.30000000      90.00000000     360.00000000      43.57706206       1.49946235
       7.40000000      90.00000000     360.00000000      43.57730649       1.49947076
       7.50000000      90.00000000     360.00000000      43.57755090       1.49947917
       7.60000000      90.00000000     360.00000000      43.57779529       1.49948758
       7.70000000      90.00000000     360.00000000      43.57803965       1.49949599
       7.80000000      90.00000000     360.00000000      43.57828400       1.49950439
       7.90000000      90.00000000     360.00000000      43.57852832       1.49951280
       8.00000000      90.00000000     360.00000000      43.57877261       1.49952121
       8.10000000      90.00000000     360.00000000      43.57901689       1.49952961
       8.20000000      90.00000000     360.00000000      43.57926114       1.49953802
       8.30000000      90.00000000     360.00000000      43.57950537       1.49954642
       8.40000000      90.00000000     360.00000000      43.57974957       1.49955482
       8.50000000      90.00000000     360.00000000      43.57999376       1.49956323
       8.60000000      90.00000000     360.00000000      43.58023792       1.49957163
       8.70000000      90.00000000     360.00000000      43.58048206       1.49958003
       8.80000000      90.00000000     360.00000000      43.58072618       1.49958843
       8.90000000      90.00000000     360.00000000      43.58097027       1.49959683
       9.00000000      90.00000000     360.00000000      43.58121434       1.49960523
       9.10000000      90.00000000     360.00000000      43.58145839       1.49961362
       9.20000000      90.00000000     360.00000000      43.58170242       1.49962202
       9.30000000      90.00000000     360.00000000      43.58194642       1.49963042
       9.40000000      90.00000000     360.00000000      43.58219041       1.49963881
       9.50000000      90.00000000     360.00000000      43.58243436       1.49964721
       9.60000000      90.00000000     360.00000000      43.58267830       1.49965560
       9.70000000      90.00000000     360.00000000      43.58292222       1.49966399
       9.80000000      90.00000000     360.00000000      43.58316611       1.49967239
       9.90000000      90.00000000     360.00000000      43.58340998       1.49968078
      10.00000000      90.00000000     360.00000000      43.58365383       1.49968917
      10.10000000      90.00000000     360.00000000      43.58389765       1.49969756
      10.20000000      90.00000000     360.00000000      43.58414146       1.49970595
      10.30000000      90.00000000     360.00000000      43.58438524       1.49971433
      10.40000000      90.00000000     360.00000000      43.58462899       1.49972272
      10.50000000      90.00000000     360.00000000      43.58487273       1.49973111
      10.60000000      90.00000000     360.00000000      43.58511644       1.49973950
      10.70000000      90.00000000     360.00000000      43.58536013       1.49974788
      10.80000000      90.00000000     360.00000000      43.58560380       1.49975626
      10.90000000      90.00000000     360.00000000      43.58584745       1.49976465
      11.00000000      90.00000000     360.00000000      43.58609107       1.49977303
      11.10000000      90.00000000     360.00000000      43.58633468       1.49978141
      11.20000000      90.00000000     360.00000000      43.58657826       1.49978980
      11.30000000      90.00000000     360.00000000      43.58682181       1.49979818
      11.40000000      90.00000000     360.00000000      43.58706535       1.49980656
      11.50000000      90.00000000     360.00000000      43.58730886       1.49981494
      11.60000000      90.00000000     360.00000000      43.58755235       1.49982331
      11.70000000      90.00000000     360.00000000      43.58779582       1.49983169
      11.80000000      90.00000000     360.00000000      43.58803927       1.49984007
      11.90000000      90.00000000     360.00000000      43.58828269       1.49984844
      12.00000000      90.00000000     360.00000000      43.58852609       1.49985682
      12.10000000      90.00000000     360.00000000      43.58876947       1.49986519
      12.20000000      90.00000000     360.00000000      43.58901283       1.49987357
      12.30000000      90.00000000     360.00000000      43.58925617       1.49988194
      12.40000000      90.00000000     360.00000000      43.58949948       1.49989031
      12.50000000      90.00000000     360.00000000      43.58974277       1.49989868
      12.60000000      90.00000000     360.00000000      43.58998604       1.49990706
      12.70000000      90.00000000     360.00000000      43.59022928       1.49991543
      12.80000000      90.00000000     360.00000000      43.59047251       1.49992379
      12.90000000      90.00000000     360.00000000      43.59071571       1.49993216
      13.00000000      90.00000000     360.00000000      43.59095889       1.49994053
      13.10000000      90.00000000     360.00000000      43.59120205       1.49994890
      13.20000000      90.00000000     360.00000000      43.59144519       1.49995726
      13.30000000      90.00000000     360.00000000      43.59168830       1.49996563
      13.40000000      90.00000000     360.00000000      43.59193139       1.49997399
      13.50000000      90.00000000     360.00000000      43.59217446       1.49998236
      13.60000000      90.00000000     360.00000000      43.59241751       1.49999072
      13.70000000      90.00000000     360.00000000      43.59266053       1.49999908
      13.80000000      90.00000000     360.00000000      43.59290354       1.50000744
      13.90000000      90.00000000     360.00000000      43.59314652       1.50001581
      14.00000000      90.00000000     360.00000000      43.59338948       1.50002417
      14.10000000      90.00000000     360.00000000      43.59363241       1.50003253
      14.20000000      90.00000000     360.00000000      43.59387533       1.50004088
      14.30000000      90.00000000     360.00000000      43.59411822       1.50004924
      14.40000000      90.00000000     360.00000000      43.59436109       1.50005760
      14.50000000      90.00000000     360.00000000      43.59460394       1.50006595
      14.60000000      90.00000000     360.00000000      43.59484677       1.50007431
      14.70000000      90.00000000     360.00000000      43.59508958       1.50008267
      14.80000000      90.00000000     360.00000000      43.59533236       1.50009102
      14.90000000      90.00000000     360.00000000      43.59557512       1.50009937
      15.00000000      90.00000000     360.00000000      43.59581786       1.50010772
      15.10000000      90.00000000     360.00000000      43.59606058       1.50011608
      15.20000000      90.00000000     360.00000000      43.59630327       1.50012443
      15.30000000      90.00000000     360.00000000      43.59654595       1.50013278
      15.40000000      90.00000000     360.00000000      43.59678860       1.50014113
      15.50000000      90.00000000     360.00000000      43.59703123       1.50014948
      15.60000000      90.00000000     360.00000000      43.59727384       1.50015782
      15.70000000      90.00000000     360.00000000      43.59751642       1.50016617
      15.80000000      90.00000000     360.00000000      43.59775899       1.50017452
      15.90000000      90.00000000     360.00000000      43.59800153       1.50018286
      16.00000000      90.00000000     360.00000000      43.59824405       1.50019121
      16.10000000      90.00000000     360.00000000      43.59848655       1.50019955
      16.20000000      90.00000000     360.00000000      43.59872902       1.50020790
      16.30000000      90.00000000     360.00000000      43.59897148       1.50021624
      16.40000000      90.00000000     360.00000000      43.59921391       1.50022458
      16.50000000      90.00000000     360.00000000      43.59945632       1.50023292
      16.60000000      90.00000000     360.00000000      43.59969871       1.50024126
      16.70000000      90.00000000     360.00000000      43.59994108       1.50024960
      16.80000000      90.00000000     360.00000000      43.60018342       1.50025794
      16.90000000      90.00000000     360.00000000      43.60042575       1.50026628
      17.00000000      90.00000000     360.00000000      43.60066805       1.50027462
      17.10000000      90.00000000     360.00000000      43.60091033       1.50028295
      17.20000000      90.00000000     360.00000000      43.60115259       1.50029129
      17.30000000      90.00000000     360.00000000      43.60139482       1.50029963
      17.40000000      90.00000000     360.00000000      43.60163704       1.50030796
      17.50000000      90.00000000     360.00000000      43.60187923       1.50031629
      17.60000000      90.00000000     360.00000000      43.60212140       1.50032463
      17.70000000      90.00000000     360.00000000      43.60236355       1.50033296
      17.80000000      90.00000000     360.00000000      43.60260568       1.50034129
      17.90000000      90.00000000     360.00000000      43.60284778       1.50034962
      18.00000000      90.00000000     360.00000000      43.60308987       1.50035795
      18.10000000      90.00000000     360.00000000      43.60333193       1.50036628
      18.20000000      90.00000000     360.00000000      43.60357397       1.50037461
      18.30000000      90.00000000     360.00000000      43.60381599       1.50038294
      18.40000000      90.00000000     360.00000000      43.60405799       1.50039126
      18.50000000      90.00000000     360.00000000      43.60429997       1.50039959
      18.60000000      90.00000000     360.00000000      43.60454192       1.50040791
      18.70000000      90.00000000     360.00000000      43.60478385       1.50041624
      18.80000000      90.00000000     360.00000000      43.60502576       1.50042456
      18.90000000      90.00000000     360.00000000      43.60526765       1.50043289
      19.00000000      90.00000000     360.00000000      43.60550952       1.50044121
      19.10000000      90.00000000     360.00000000      43.60575137       1.50044953
      19.20000000      90.00000000     360.00000000      43.60599319       1.50045785
      19.30000000      90.00000000     360.00000000      43.60623499       1.50046617
      19.40000000      90.00000000     360.00000000      43.60647678       1.50047449
      19.50000000      90.00000000     360.00000000      43.60671854       1.50048281
      19.60000000      90.00000000     360.00000000      43.60696027       1.50049113
      19.70000000      90.00000000     360.00000000      43.60720199       1.50049945
      19.80000000      90.00000000     360.00000000      43.60744369       1.50050776
      19.90000000      90.00000000     360.00000000      43.60768536       1.50051608
      20.00000000      90.00000000     360.00000000      43.60792701       1.50052439
      20.10000000      90.00000000     360.00000000      43.60816864       1.50053271
      20.20000000      90.00000000     360.00000000      43.60841025       1.50054102
      20.30000000      90.00000000     360.00000000      43.60865184       1.50054933
      20.40000000      90.00000000     360.00000000      43.60889340       1.50055765
      20.50000000      90.00000000     360.00000000      43.60913495       1.50056596
      20.60000000      90.00000000     360.00000000      43.60937647       1.50057427
      20.70000000      90.00000000     360.00000000      43.60961797       1.50058258
      20.80000000      90.00000000     360.00000000      43.60985945       1.50059089
      20.90000000      90.00000000     360.00000000      43.61010091       1.50059920
      21.00000000      90.00000000     360.00000000      43.61034235       1.50060750
      21.10000000      90.00000000     360.00000000      43.61058376       1.50061581
      21.20000000      90.00000000     360.00000000      43.61082516       1.50062412
      21.30000000      90.00000000     360.00000000      43.61106653       1.50063242
      21.40000000      90.00000000     360.00000000      43.61130788       1.50064073
      21.50000000      90.00000000     360.00000000      43.61154921       1.50064903
      21.60000000      90.00000000     360.00000000      43.61179052       1.50065734
      21.70000000      90.00000000     360.00000000      43.61203181       1.50066564
      21.80000000      90.00000000     360.00000000      43.61227307       1.50067394
      21.90000000      90.00000000     360.00000000      43.61251431       1.50068224
      22.00000000      90.00000000     360.00000000      43.61275554       1.50069054
      22.10000000      90.00000000     360.00000000      43.61299674       1.50069884
      22.20000000      90.00000000     360.00000000      43.61323792       1.50070714
      22.30000000      90.00000000     360.00000000      43.61347908       1.50071544
      22.40000000      90.00000000     360.00000000      43.61372022       1.50072374
      22.50000000      90.00000000     360.00000000      43.61396133       1.50073203
      22.60000000      90.00000000     360.00000000      43.61420243       1.50074033
      22.70000000      90.00000000     360.00000000      43.61444350       1.50074862
      22.80000000      90.00000000     360.00000000      43.61468455       1.50075692
      22.90000000      90.00000000     360.00000000      43.61492558       1.50076521
      23.00000000      90.00000000     360.00000000      43.61516659       1.50077350
      23.10000000      90.00000000     360.00000000      43.61540758       1.50078180
      23.20000000      90.00000000     360.00000000      43.61564855       1.50079009
      23.30000000      90.00000000     360.00000000      43.61588949       1.50079838
      23.40000000      90.00000000     360.00000000      43.61613042       1.50080667
      23.50000000      90.00000000     360.00000000      43.61637132       1.50081496
      23.60000000      90.00000000     360.00000000      43.61661220       1.50082325
      23.70000000      90.00000000     360.00000000      43.61685306       1.50083153
      23.80000000      90.00000000     360.00000000      43.61709390       1.50083982
      23.90000000      90.00000000     360.00000000      43.61733472       1.50084811
      24.00000000      90.00000000     360.00000000      43.61757552       1.50085639
      24.10000000      90.00000000     360.00000000      43.61781629       1.50086468
      24.20000000      90.00000000     360.00000000      43.61805705       1.50087296
      24.30000000      90.00000000     360.00000000      43.61829778       1.50088125
      24.40000000      90.00000000     360.00000000      43.61853849       1.50088953
      24.50000000      90.00000000     360.00000000      43.61877919       1.50089781
      24.60000000      90.00000000     360.00000000      43.61901986       1.50090609
      24.70000000      90.00000000     360.00000000      43.61926050       1.50091437
      24.80000000      90.00000000     360.00000000      43.61950113       1.50092265
      24.90000000      90.00000000     360.00000000      43.61974174       1.50093093
      25.00000000      90.00000000     360.00000000      43.61998232       1.50093921
      25.10000000      90.00000000     360.00000000      43.62022289       1.50094749
      25.20000000      90.00000000     360.00000000      43.62046343       1.50095577
      25.30000000      90.00000000     360.00000000      43.62070395       1.50096404
      25.40000000      90.00000000     360.00000000      43.62094446       1.50097232
      25.50000000      90.00000000     360.00000000      43.62118494       1.50098059
      25.60000000      90.00000000     360.00000000      43.62142539       1.50098887
      25.70000000      90.00000000     360.00000000      43.62166583       1.50099714
      25.80000000      90.00000000     360.00000000      43.62190625       1.50100541
      25.90000000      90.00000000     360.00000000      43.62214664       1.50101368
      26.00000000      90.00000000     360.00000000      43.62238702       1.50102195
      26.10000000      90.00000000     360.00000000      43.62262737       1.50103023
      26.20000000      90.00000000     360.00000000      43.62286771       1.50103850
      26.30000000      90.00000000     360.00000000      43.62310802       1.50104676
      26.40000000      90.00000000     360.00000000      43.62334831       1.50105503
      26.50000000      90.00000000     360.00000000      43.62358858       1.50106330
      26.60000000      90.00000000     360.00000000      43.62382883       1.50107157
      26.70000000      90.00000000     360.00000000      43.62406905       1.50107983
      26.80000000      90.00000000     360.00000000      43.62430926       1.50108810
      26.90000000      90.00000000     360.00000000      43.62454945       1.50109636
      27.00000000      90.00000000     360.00000000      43.62478961       1.50110463
      27.10000000      90.00000000     360.00000000      43.62502975       1.50111289
      27.20000000      90.00000000     360.00000000      43.62526988       1.50112115
      27.30000000      90.00000000     360.00000000      43.62550998       1.50112941
      27.40000000      90.00000000     360.00000000      43.62575006       1.50113768
      27.50000000      90.00000000     360.00000000      43.62599012       1.50114594
      27.60000000      90.00000000     360.00000000      43.62623016       1.50115420
      27.70000000      90.00000000     360.00000000      43.62647018       1.50116245
      27.80000000      90.00000000     360.00000000      43.62671017       1.50117071
      27.90000000      90.00000000     360.00000000      43.62695015       1.50117897
      28.00000000      90.00000000     360.00000000      43.62719011       1.50118723
      28.10000000      90.00000000     360.00000000      43.62743004       1.50119548
      28.20000000      90.00000000     360.00000000      43.62766996       1.50120374
      28.30000000      90.00000000     360.00000000      43.62790985       1.50121199
      28.40000000      90.00000000     360.00000000      43.62814972       1.50122025
      28.50000000      90.00000000     360.00000000      43.62838957       1.50122850
      28.60000000      90.00000000     360.00000000      43.62862940       1.50123675
      28.70000000      90.00000000     360.00000000      43.62886921       1.50124500
      28.80000000      90.00000000     360.00000000      43.62910900       1.50125325
      28.90000000      90.00000000     360.00000000      43.62934877       1.50126150
      29.00000000      90.00000000     360.00000000      43.62958852       1.50126975
      29.10000000      90.00000000     360.00000000      43.62982824       1.50127800
      29.20000000      90.00000000     360.00000000      43.63006795       1.50128625
      29.30000000      90.00000000     360.00000000      43.63030763       1.50129450
      29.40000000      90.00000000     360.00000000      43.63054730       1.50130275
      29.50000000      90.00000000     360.00000000      43.63078694       1.50131099
      29.60000000      90.00000000     360.00000000      43.63102657       1.50131924
      29.70000000      90.00000000     360.00000000      43.63126617       1.50132748
      29.80000000      90.00000000     360.00000000      43.63150575       1.50133573
      29.90000000      90.00000000     360.00000000      43.63174531       1.50134397
      30.00000000      90.00000000     360.00000000      43.63198485       1.50135221
      30.10000000      90.00000000     360.00000000      43.63222437       1.50136045
      30.20000000      90.00000000     360.00000000      43.63246387       1.50136869
      30.30000000      90.00000000     360.00000000      43.63270335       1.50137693
      30.40000000      90.00000000     360.00000000      43.63294280       1.50138517
      30.50000000      90.00000000     360.00000000      43.63318224       1.50139341
      30.60000000      90.00000000     360.00000000      43.63342165       1.50140165
      30.70000000      90.00000000     360.00000000      43.63366105       1.50140989
      30.80000000      90.00000000     360.00000000      43.63390042       1.50141812
      30.90000000      90.00000000     360.00000000      43.63413978       1.50142636
      31.00000000      90.00000000     360.00000000      43.63437911       1.50143460
      31.10000000      90.00000000     360.00000000      43.63461842       1.50144283
      31.20000000      90.00000000     360.00000000      43.63485772       1.50145106
      31.30000000      90.00000000     360.00000000      43.63509699       1.50145930
      31.40000000      90.00000000     360.00000000      43.63533624       1.50146753
      31.50000000      90.00000000     360.00000000      43.63557547       1.50147576
      31.60000000      90.00000000     360.00000000      43.63581468       1.50148399
      31.70000000      90.00000000     360.00000000      43.63605387       1.50149222
      31.80000000      90.00000000     360.00000000      43.63629304       1.50150045
      31.90000000      90.00000000     360.00000000      43.63653219       1.50150868
      32.00000000      90.00000000     360.00000000      43.63677131       1.50151691
      32.10000000      90.00000000     360.00000000      43.63701042       1.50152514
      32.20000000      90.00000000     360.00000000      43.63724951       1.50153336
      32.30000000      90.00000000     360.00000000      43.63748857       1.50154159
      32.40000000      90.00000000     360.00000000      43.63772762       1.50154982
      32.50000000      90.00000000     360.00000000      43.63796664       1.50155804
      32.60000000      90.00000000     360.00000000      43.63820565       1.50156627
      32.70000000      90.00000000     360.00000000      43.63844463       1.50157449
      32.80000000      90.00000000     360.00000000      43.63868360       1.50158271
      32.90000000      90.00000000     360.00000000      43.63892254       1.50159093
      33.00000000      90.00000000     360.00000000      43.63916146       1.50159915
      33.10000000      90.00000000     360.00000000      43.63940036       1.50160737
      33.20000000      90.00000000     360.00000000      43.63963925       1.50161559
      33.30000000      90.00000000     360.00000000      43.63987811       1.50162381
      33.40000000      90.00000000     360.00000000      43.64011695       1.50163203
      33.50000000      90.00000000     360.00000000      43.64035577       1.50164025
      33.60000000      90.00000000     360.00000000      43.64059457       1.50164847
      33.70000000      90.00000000     360.00000000      43.64083335       1.50165668
      33.80000000      90.00000000     360.00000000      43.64107211       1.50166490
      33.90000000      90.00000000     360.00000000      43.64131085       1.50167311
      34.00000000      90.00000000     360.00000000      43.64154957       1.50168133
      34.10000000      90.00000000     360.00000000      43.64178826       1.50168954
      34.20000000      90.00000000     360.00000000      43.64202694       1.50169775
      34.30000000      90.00000000     360.00000000      43.64226560       1.50170597
      34.40000000      90.00000000     360.00000000      43.64250424       1.50171418
      34.50000000      90.00000000     360.00000000      43.64274285       1.50172239
      34.60000000      90.00000000     360.00000000      43.64298145       1.50173060
      34.70000000      90.00000000     360.00000000      43.64322003       1.50173881
      34.80000000      90.00000000     360.00000000      43.64345858       1.50174702
      34.90000000      90.00000000     360.00000000      43.64369712       1.50175522
      35.00000000      90.00000000     360.00000000      43.64393563       1.50176343
      35.10000000      90.00000000     360.00000000      43.64417413       1.50177164
      35.20000000      90.00000000     360.00000000      43.64441260       1.50177984
      35.30000000      90.00000000     360.00000000      43.64465106       1.50178805
      35.40000000      90.00000000     360.00000000      43.64488949       1.50179625
      35.50000000      90.00000000     360.00000000      43.64512791       1.50180446
      35.60000000      90.00000000     360.00000000      43.64536630       1.50181266
      35.70000000      90.00000000     360.00000000      43.64560468       1.50182086
      35.80000000      90.00000000     360.00000000      43.64584303       1.50182906
      35.90000000      90.00000000     360.00000000      43.64608136       1.50183726
      36.00000000      90.00000000     360.00000000      43.64631968       1.50184546
      36.10000000      90.00000000     360.00000000      43.64655797       1.50185366
      36.20000000      90.00000000     360.00000000      43.64679624       1.50186186
      36.30000000      90.00000000     360.00000000      43.64703449       1.50187006
      36.40000000      90.00000000     360.00000000      43.64727273       1.50187826
      36.50000000      90.00000000     360.00000000      43.64751094       1.50188645
      36.60000000      90.00000000     360.00000000      43.64774913       1.50189465
      36.70000000      90.00000000     360.00000000      43.64798730       1.50190285
      36.80000000      90.00000000     360.00000000      43.64822545       1.50191104
      36.90000000      90.00000000     360.00000000      43.64846359       1.50191923
      37.00000000      90.00000000     360.00000000      43.64870170       1.50192743
      37.10000000      90.00000000     360.00000000      43.64893979       1.50193562
      37.20000000      90.00000000     360.00000000      43.64917786       1.50194381
      37.30000000      90.00000000     360.00000000      43.64941591       1.50195200
      37.40000000      90.00000000     360.00000000      43.64965394       1.50196019
      37.50000000      90.00000000     360.00000000      43.64989195       1.50196838
      37.60000000      90.00000000     360.00000000      43.65012994       1.50197657
      37.70000000      90.00000000     360.00000000      43.65036791       1.50198476
      37.80000000      90.00000000     360.00000000      43.65060587       1.50199295
      37.90000000      90.00000000     360.00000000      43.65084380       1.50200114
      38.00000000      90.00000000     360.00000000      43.65108171       1.50200932
      38.10000000      90.00000000     360.00000000      43.65131960       1.50201751
      38.20000000      90.00000000     360.00000000      43.65155747       1.50202569
      38.30000000      90.00000000     360.00000000      43.65179532       1.50203388
      38.40000000      90.00000000     360.00000000      43.65203315       1.50204206
      38.50000000      90.00000000     360.00000000      43.65227096       1.50205024
      38.60000000      90.00000000     360.00000000      43.65250875       1.50205843
      38.70000000      90.00000000     360.00000000      43.65274652       1.50206661
      38.80000000      90.00000000     360.00000000      43.65298427       1.50207479
      38.90000000      90.00000000     360.00000000      43.65322200       1.50208297
      39.00000000      90.00000000     360.00000000      43.65345972       1.50209115
      39.10000000      90.00000000     360.00000000      43.65369741       1.50209933
      39.20000000      90.00000000     360.00000000      43.65393508       1.50210751
      39.30000000      90.00000000     360.00000000      43.65417273       1.50211568
      39.40000000      90.00000000     360.00000000      43.65441036       1.50212386
      39.50000000      90.00000000     360.00000000      43.65464797       1.50213204
      39.60000000      90.00000000     360.00000000      43.65488556       1.50214021
      39.70000000      90.00000000     360.00000000      43.65512313       1.50214839
      39.80000000      90.00000000     360.00000000      43.65536069       1.50215656
      39.90000000      90.00000000     360.00000000      43.65559822       1.50216473
      40.00000000      90.00000000     360.00000000      43.65583573       1.50217291
