 # applied field (T), theta (degree), phi (degree), abs [muB/unitcell], abs [T]
       0.00000000       0.00000000       0.00000000      51.65123485       1.77729012
       0.10000000       0.34102057     360.00000000      51.65123554       1.77729014
       0.20000000       0.68204171     360.00000000      51.65123759       1.77729022
       0.30000000       1.02306398     360.00000000      51.65124103       1.77729033
       0.40000000       1.30735255     360.00000000      51.65124556       1.77729049
       0.50000000       1.64837834     360.00000000      51.65125169       1.77729070
       0.60000000       1.98940685     360.00000000      51.65125923       1.77729096
       0.70000000       2.33043864     360.00000000      51.65126817       1.77729127
       0.80000000       2.67147429     360.00000000      51.65127855       1.77729162
       0.90000000       3.01251434     360.00000000      51.65129037       1.77729203
       1.00000000       3.35355936     360.00000000      51.65130365       1.77729249
       1.10000000       3.69460991     360.00000000      51.65131842       1.77729300
       1.20000000       3.97892533     360.00000000      51.65133374       1.77729352
       1.30000000       4.31998747     360.00000000      51.65135146       1.77729413
       1.40000000       4.66105672     360.00000000      51.65137073       1.77729480
       1.50000000       5.00213364     360.00000000      51.65139160       1.77729551
       1.60000000       5.34321880     360.00000000      51.65141410       1.77729629
       1.70000000       5.68431276     360.00000000      51.65143825       1.77729712
       1.80000000       6.02541606     360.00000000      51.65146411       1.77729801
       1.90000000       6.36652926     360.00000000      51.65149169       1.77729896
       2.00000000       6.70765292     360.00000000      51.65152106       1.77729997
       2.10000000       7.04878759     360.00000000      51.65155224       1.77730104
       2.20000000       7.38993382     360.00000000      51.65158529       1.77730218
       2.30000000       7.73109216     360.00000000      51.65162025       1.77730338
       2.40000000       8.01550213     360.00000000      51.65165458       1.77730456
       2.50000000       8.35668408     360.00000000      51.65169332       1.77730590
       2.60000000       8.69787968     360.00000000      51.65173413       1.77730730
       2.70000000       9.03908950     360.00000000      51.65177703       1.77730878
       2.80000000       9.38031407     360.00000000      51.65182210       1.77731033
       2.90000000       9.72155393     360.00000000      51.65186939       1.77731196
       3.00000000      10.11958570     360.00000000      51.65192282       1.77731379
       3.10000000      10.46086060     360.00000000      51.65197497       1.77731559
       3.20000000      10.80215250     360.00000000      51.65202954       1.77731747
       3.30000000      11.14346193     360.00000000      51.65208657       1.77731943
       3.40000000      11.48478943     360.00000000      51.65214614       1.77732148
       3.50000000      11.82613552     360.00000000      51.65220831       1.77732362
       3.60000000      12.16750074     360.00000000      51.65227315       1.77732585
       3.70000000      12.50888560     360.00000000      51.65234072       1.77732817
       3.80000000      12.85029063     360.00000000      51.65241109       1.77733059
       3.90000000      13.19171634     360.00000000      51.65248433       1.77733312
       4.00000000      13.58997224     360.00000000      51.65256740       1.77733597
       4.10000000      13.93144461     360.00000000      51.65264696       1.77733871
       4.20000000      14.27293929     360.00000000      51.65272960       1.77734155
       4.30000000      14.61445679     360.00000000      51.65281541       1.77734451
       4.40000000      15.01282272     360.00000000      51.65291294       1.77734786
       4.50000000      15.35439146     360.00000000      51.65300571       1.77735106
       4.60000000      15.69598459     360.00000000      51.65310187       1.77735436
       4.70000000      16.09444097     360.00000000      51.65321133       1.77735813
       4.80000000      16.43608874     360.00000000      51.65331495       1.77736170
       4.90000000      16.77776245     360.00000000      51.65342218       1.77736539
       5.00000000      17.17631502     360.00000000      51.65354443       1.77736959
       5.10000000      17.51804667     360.00000000      51.65365962       1.77737356
       5.20000000      17.91666831     360.00000000      51.65379107       1.77737808
       5.30000000      18.25846010     360.00000000      51.65391453       1.77738233
       5.40000000      18.65715336     360.00000000      51.65405556       1.77738718
       5.50000000      18.99900747     360.00000000      51.65418764       1.77739172
       5.60000000      19.39777486     360.00000000      51.65433864       1.77739692
       5.70000000      19.79658322     360.00000000      51.65449510       1.77740230
       5.80000000      20.13853732     360.00000000      51.65464098       1.77740732
       5.90000000      20.53742354     360.00000000      51.65480797       1.77741307
       6.00000000      20.93635270     360.00000000      51.65498072       1.77741901
       6.10000000      21.27841158     360.00000000      51.65514112       1.77742453
       6.20000000      21.67742215     360.00000000      51.65532493       1.77743086
       6.30000000      22.07647753     360.00000000      51.65551476       1.77743739
       6.40000000      22.47557835     360.00000000      51.65571072       1.77744413
       6.50000000      22.87472524     360.00000000      51.65591288       1.77745109
       6.60000000      23.27391879     360.00000000      51.65612133       1.77745826
       6.70000000      23.67315960     360.00000000      51.65633614       1.77746565
       6.80000000      24.07244824     360.00000000      51.65655740       1.77747327
       6.90000000      24.47178528     360.00000000      51.65678516       1.77748110
       7.00000000      24.92814661     360.00000000      51.65704490       1.77749004
       7.10000000      25.32758929     360.00000000      51.65728673       1.77749836
       7.20000000      25.72708202     360.00000000      51.65753525       1.77750691
       7.30000000      26.18362370     360.00000000      51.65781864       1.77751667
       7.40000000      26.58322546     360.00000000      51.65808158       1.77752571
       7.50000000      27.03989329     360.00000000      51.65838135       1.77753603
       7.60000000      27.43960619     360.00000000      51.65865888       1.77754558
       7.70000000      27.89640248     360.00000000      51.65897522       1.77755646
       7.80000000      28.35326824     360.00000000      51.65930040       1.77756765
       7.90000000      28.81020403     360.00000000      51.65963444       1.77757915
       8.00000000      29.26721038     360.00000000      51.65997735       1.77759095
       8.10000000      29.72428780     360.00000000      51.66032912       1.77760305
       8.20000000      30.18143672     360.00000000      51.66068974       1.77761546
       8.30000000      30.63865758     360.00000000      51.66105917       1.77762817
       8.40000000      31.09595076     360.00000000      51.66143739       1.77764118
       8.50000000      31.61042153     360.00000000      51.66186466       1.77765589
       8.60000000      32.06786964     360.00000000      51.66226129       1.77766953
       8.70000000      32.58251586     360.00000000      51.66270897       1.77768494
       8.80000000      33.09725555     360.00000000      51.66316727       1.77770071
       8.90000000      33.61208895     360.00000000      51.66363603       1.77771684
       9.00000000      34.12701626     360.00000000      51.66411510       1.77773332
       9.10000000      34.64203756     360.00000000      51.66460429       1.77775016
       9.20000000      35.21433225     360.00000000      51.66515144       1.77776898
       9.30000000      35.78674353     360.00000000      51.66571045       1.77778822
       9.40000000      36.30206810     360.00000000      51.66623072       1.77780612
       9.50000000      36.87470011     360.00000000      51.66681138       1.77782610
       9.60000000      37.50467479     360.00000000      51.66745527       1.77784826
       9.70000000      38.07754978     360.00000000      51.66805820       1.77786900
       9.80000000      38.70779102     360.00000000      51.66872553       1.77789197
       9.90000000      39.33817073     360.00000000      51.66940425       1.77791532
      10.00000000      40.02596612     360.00000000      51.67015021       1.77794099
      10.10000000      40.65663198     360.00000000      51.67085067       1.77796509
      10.20000000      41.34473696     360.00000000      51.67161869       1.77799152
      10.30000000      42.09031989     360.00000000      51.67245597       1.77802033
      10.40000000      42.83608701     360.00000000      51.67330397       1.77804951
      10.50000000      43.58203518     360.00000000      51.67416141       1.77807901
      10.60000000      44.38552363     360.00000000      51.67508821       1.77811090
      10.70000000      45.24659261     360.00000000      51.67608464       1.77814519
      10.80000000      46.10788832     360.00000000      51.67708809       1.77817972
      10.90000000      47.02681386     360.00000000      51.67815903       1.77821657
      11.00000000      47.94598250     360.00000000      51.67923323       1.77825353
      11.10000000      48.98026777     360.00000000      51.68043362       1.77829483
      11.20000000      50.07229699     360.00000000      51.68169433       1.77833821
      11.30000000      51.27958090     360.00000000      51.68307301       1.77838565
      11.40000000      52.54470888     360.00000000      51.68450077       1.77843478
      11.50000000      53.92521875     360.00000000      51.68603067       1.77848743
      11.60000000      55.42118297     360.00000000      51.68765040       1.77854316
      11.70000000      57.14775963     360.00000000      51.68945912       1.77860540
      11.80000000      59.04753974     360.00000000      51.69137039       1.77867116
      11.90000000      61.23577165     360.00000000      51.69345656       1.77874295
      12.00000000      63.82781275     360.00000000      51.69575637       1.77882208
      12.10000000      66.93910461     360.00000000      51.69826053       1.77890825
      12.20000000      70.80040316     360.00000000      51.70096674       1.77900137
      12.30000000      75.81551875     360.00000000      51.70380016       1.77909886
      12.40000000      83.71459846     360.00000000      51.70662089       1.77919592
      12.50000000      90.00000000     360.00000000      51.70736103       1.77922139
      12.60000000      90.00000000     360.00000000      51.70740594       1.77922294
      12.70000000      90.00000000     360.00000000      51.70745085       1.77922448
      12.80000000      90.00000000     360.00000000      51.70749577       1.77922603
      12.90000000      90.00000000     360.00000000      51.70754070       1.77922757
      13.00000000      90.00000000     360.00000000      51.70758563       1.77922912
      13.10000000      90.00000000     360.00000000      51.70763056       1.77923067
      13.20000000      90.00000000     360.00000000      51.70767551       1.77923221
      13.30000000      90.00000000     360.00000000      51.70772045       1.77923376
      13.40000000      90.00000000     360.00000000      51.70776541       1.77923531
      13.50000000      90.00000000     360.00000000      51.70781036       1.77923685
      13.60000000      90.00000000     360.00000000      51.70785533       1.77923840
      13.70000000      90.00000000     360.00000000      51.70790030       1.77923995
      13.80000000      90.00000000     360.00000000      51.70794527       1.77924149
      13.90000000      90.00000000     360.00000000      51.70799025       1.77924304
      14.00000000      90.00000000     360.00000000      51.70803523       1.77924459
      14.10000000      90.00000000     360.00000000      51.70808022       1.77924614
      14.20000000      90.00000000     360.00000000      51.70812522       1.77924769
      14.30000000      90.00000000     360.00000000      51.70817022       1.77924924
      14.40000000      90.00000000     360.00000000      51.70821522       1.77925078
      14.50000000      90.00000000     360.00000000      51.70826024       1.77925233
      14.60000000      90.00000000     360.00000000      51.70830525       1.77925388
      14.70000000      90.00000000     360.00000000      51.70835027       1.77925543
      14.80000000      90.00000000     360.00000000      51.70839530       1.77925698
      14.90000000      90.00000000     360.00000000      51.70844033       1.77925853
      15.00000000      90.00000000     360.00000000      51.70848537       1.77926008
      15.10000000      90.00000000     360.00000000      51.70853042       1.77926163
      15.20000000      90.00000000     360.00000000      51.70857546       1.77926318
      15.30000000      90.00000000     360.00000000      51.70862052       1.77926473
      15.40000000      90.00000000     360.00000000      51.70866558       1.77926628
      15.50000000      90.00000000     360.00000000      51.70871064       1.77926783
      15.60000000      90.00000000     360.00000000      51.70875571       1.77926938
      15.70000000      90.00000000     360.00000000      51.70880079       1.77927093
      15.80000000      90.00000000     360.00000000      51.70884587       1.77927248
      15.90000000      90.00000000     360.00000000      51.70889096       1.77927404
      16.00000000      90.00000000     360.00000000      51.70893605       1.77927559
      16.10000000      90.00000000     360.00000000      51.70898114       1.77927714
      16.20000000      90.00000000     360.00000000      51.70902625       1.77927869
      16.30000000      90.00000000     360.00000000      51.70907135       1.77928024
      16.40000000      90.00000000     360.00000000      51.70911647       1.77928180
      16.50000000      90.00000000     360.00000000      51.70916159       1.77928335
      16.60000000      90.00000000     360.00000000      51.70920671       1.77928490
      16.70000000      90.00000000     360.00000000      51.70925184       1.77928645
      16.80000000      90.00000000     360.00000000      51.70929697       1.77928801
      16.90000000      90.00000000     360.00000000      51.70934211       1.77928956
      17.00000000      90.00000000     360.00000000      51.70938726       1.77929111
      17.10000000      90.00000000     360.00000000      51.70943241       1.77929267
      17.20000000      90.00000000     360.00000000      51.70947757       1.77929422
      17.30000000      90.00000000     360.00000000      51.70952273       1.77929577
      17.40000000      90.00000000     360.00000000      51.70956790       1.77929733
      17.50000000      90.00000000     360.00000000      51.70961307       1.77929888
      17.60000000      90.00000000     360.00000000      51.70965825       1.77930044
      17.70000000      90.00000000     360.00000000      51.70970343       1.77930199
      17.80000000      90.00000000     360.00000000      51.70974862       1.77930355
      17.90000000      90.00000000     360.00000000      51.70979381       1.77930510
      18.00000000      90.00000000     360.00000000      51.70983901       1.77930666
      18.10000000      90.00000000     360.00000000      51.70988422       1.77930821
      18.20000000      90.00000000     360.00000000      51.70992943       1.77930977
      18.30000000      90.00000000     360.00000000      51.70997464       1.77931132
      18.40000000      90.00000000     360.00000000      51.71001986       1.77931288
      18.50000000      90.00000000     360.00000000      51.71006509       1.77931444
      18.60000000      90.00000000     360.00000000      51.71011032       1.77931599
      18.70000000      90.00000000     360.00000000      51.71015556       1.77931755
      18.80000000      90.00000000     360.00000000      51.71020080       1.77931911
      18.90000000      90.00000000     360.00000000      51.71024605       1.77932066
      19.00000000      90.00000000     360.00000000      51.71029130       1.77932222
      19.10000000      90.00000000     360.00000000      51.71033656       1.77932378
      19.20000000      90.00000000     360.00000000      51.71038182       1.77932534
      19.30000000      90.00000000     360.00000000      51.71042709       1.77932689
      19.40000000      90.00000000     360.00000000      51.71047237       1.77932845
      19.50000000      90.00000000     360.00000000      51.71051765       1.77933001
      19.60000000      90.00000000     360.00000000      51.71056293       1.77933157
      19.70000000      90.00000000     360.00000000      51.71060822       1.77933313
      19.80000000      90.00000000     360.00000000      51.71065352       1.77933468
      19.90000000      90.00000000     360.00000000      51.71069882       1.77933624
      20.00000000      90.00000000     360.00000000      51.71074413       1.77933780
      20.10000000      90.00000000     360.00000000      51.71078944       1.77933936
      20.20000000      90.00000000     360.00000000      51.71083476       1.77934092
      20.30000000      90.00000000     360.00000000      51.71088009       1.77934248
      20.40000000      90.00000000     360.00000000      51.71092541       1.77934404
      20.50000000      90.00000000     360.00000000      51.71097075       1.77934560
      20.60000000      90.00000000     360.00000000      51.71101609       1.77934716
      20.70000000      90.00000000     360.00000000      51.71106143       1.77934872
      20.80000000      90.00000000     360.00000000      51.71110678       1.77935028
      20.90000000      90.00000000     360.00000000      51.71115214       1.77935184
      21.00000000      90.00000000     360.00000000      51.71119750       1.77935340
      21.10000000      90.00000000     360.00000000      51.71124287       1.77935496
      21.20000000      90.00000000     360.00000000      51.71128824       1.77935652
      21.30000000      90.00000000     360.00000000      51.71133362       1.77935809
      21.40000000      90.00000000     360.00000000      51.71137900       1.77935965
      21.50000000      90.00000000     360.00000000      51.71142439       1.77936121
      21.60000000      90.00000000     360.00000000      51.71146979       1.77936277
      21.70000000      90.00000000     360.00000000      51.71151518       1.77936433
      21.80000000      90.00000000     360.00000000      51.71156059       1.77936590
      21.90000000      90.00000000     360.00000000      51.71160600       1.77936746
      22.00000000      90.00000000     360.00000000      51.71165142       1.77936902
      22.10000000      90.00000000     360.00000000      51.71169684       1.77937058
      22.20000000      90.00000000     360.00000000      51.71174226       1.77937215
      22.30000000      90.00000000     360.00000000      51.71178770       1.77937371
      22.40000000      90.00000000     360.00000000      51.71183313       1.77937527
      22.50000000      90.00000000     360.00000000      51.71187858       1.77937684
      22.60000000      90.00000000     360.00000000      51.71192403       1.77937840
      22.70000000      90.00000000     360.00000000      51.71196948       1.77937997
      22.80000000      90.00000000     360.00000000      51.71201494       1.77938153
      22.90000000      90.00000000     360.00000000      51.71206040       1.77938309
      23.00000000      90.00000000     360.00000000      51.71210587       1.77938466
      23.10000000      90.00000000     360.00000000      51.71215135       1.77938622
      23.20000000      90.00000000     360.00000000      51.71219683       1.77938779
      23.30000000      90.00000000     360.00000000      51.71224232       1.77938935
      23.40000000      90.00000000     360.00000000      51.71228781       1.77939092
      23.50000000      90.00000000     360.00000000      51.71233331       1.77939248
      23.60000000      90.00000000     360.00000000      51.71237881       1.77939405
      23.70000000      90.00000000     360.00000000      51.71242432       1.77939562
      23.80000000      90.00000000     360.00000000      51.71246983       1.77939718
      23.90000000      90.00000000     360.00000000      51.71251535       1.77939875
      24.00000000      90.00000000     360.00000000      51.71256088       1.77940032
      24.10000000      90.00000000     360.00000000      51.71260641       1.77940188
      24.20000000      90.00000000     360.00000000      51.71265194       1.77940345
      24.30000000      90.00000000     360.00000000      51.71269748       1.77940502
      24.40000000      90.00000000     360.00000000      51.71274303       1.77940658
      24.50000000      90.00000000     360.00000000      51.71278858       1.77940815
      24.60000000      90.00000000     360.00000000      51.71283414       1.77940972
      24.70000000      90.00000000     360.00000000      51.71287970       1.77941129
      24.80000000      90.00000000     360.00000000      51.71292527       1.77941285
      24.90000000      90.00000000     360.00000000      51.71297084       1.77941442
      25.00000000      90.00000000     360.00000000      51.71301642       1.77941599
      25.10000000      90.00000000     360.00000000      51.71306201       1.77941756
      25.20000000      90.00000000     360.00000000      51.71310760       1.77941913
      25.30000000      90.00000000     360.00000000      51.71315319       1.77942070
      25.40000000      90.00000000     360.00000000      51.71319880       1.77942227
      25.50000000      90.00000000     360.00000000      51.71324440       1.77942384
      25.60000000      90.00000000     360.00000000      51.71329001       1.77942540
      25.70000000      90.00000000     360.00000000      51.71333563       1.77942697
      25.80000000      90.00000000     360.00000000      51.71338126       1.77942854
      25.90000000      90.00000000     360.00000000      51.71342688       1.77943011
      26.00000000      90.00000000     360.00000000      51.71347252       1.77943168
      26.10000000      90.00000000     360.00000000      51.71351816       1.77943325
      26.20000000      90.00000000     360.00000000      51.71356380       1.77943483
      26.30000000      90.00000000     360.00000000      51.71360945       1.77943640
      26.40000000      90.00000000     360.00000000      51.71365511       1.77943797
      26.50000000      90.00000000     360.00000000      51.71370077       1.77943954
      26.60000000      90.00000000     360.00000000      51.71374644       1.77944111
      26.70000000      90.00000000     360.00000000      51.71379211       1.77944268
      26.80000000      90.00000000     360.00000000      51.71383779       1.77944425
      26.90000000      90.00000000     360.00000000      51.71388347       1.77944583
      27.00000000      90.00000000     360.00000000      51.71392916       1.77944740
      27.10000000      90.00000000     360.00000000      51.71397485       1.77944897
      27.20000000      90.00000000     360.00000000      51.71402055       1.77945054
      27.30000000      90.00000000     360.00000000      51.71406626       1.77945211
      27.40000000      90.00000000     360.00000000      51.71411197       1.77945369
      27.50000000      90.00000000     360.00000000      51.71415769       1.77945526
      27.60000000      90.00000000     360.00000000      51.71420341       1.77945683
      27.70000000      90.00000000     360.00000000      51.71424914       1.77945841
      27.80000000      90.00000000     360.00000000      51.71429487       1.77945998
      27.90000000      90.00000000     360.00000000      51.71434061       1.77946155
      28.00000000      90.00000000     360.00000000      51.71438635       1.77946313
      28.10000000      90.00000000     360.00000000      51.71443210       1.77946470
      28.20000000      90.00000000     360.00000000      51.71447786       1.77946628
      28.30000000      90.00000000     360.00000000      51.71452362       1.77946785
      28.40000000      90.00000000     360.00000000      51.71456938       1.77946943
      28.50000000      90.00000000     360.00000000      51.71461515       1.77947100
      28.60000000      90.00000000     360.00000000      51.71466093       1.77947258
      28.70000000      90.00000000     360.00000000      51.71470671       1.77947415
      28.80000000      90.00000000     360.00000000      51.71475250       1.77947573
      28.90000000      90.00000000     360.00000000      51.71479829       1.77947730
      29.00000000      90.00000000     360.00000000      51.71484409       1.77947888
      29.10000000      90.00000000     360.00000000      51.71488990       1.77948046
      29.20000000      90.00000000     360.00000000      51.71493571       1.77948203
      29.30000000      90.00000000     360.00000000      51.71498152       1.77948361
      29.40000000      90.00000000     360.00000000      51.71502734       1.77948519
      29.50000000      90.00000000     360.00000000      51.71507317       1.77948676
      29.60000000      90.00000000     360.00000000      51.71511900       1.77948834
      29.70000000      90.00000000     360.00000000      51.71516484       1.77948992
      29.80000000      90.00000000     360.00000000      51.71521068       1.77949149
      29.90000000      90.00000000     360.00000000      51.71525653       1.77949307
      30.00000000      90.00000000     360.00000000      51.71530239       1.77949465
      30.10000000      90.00000000     360.00000000      51.71534825       1.77949623
      30.20000000      90.00000000     360.00000000      51.71539411       1.77949781
      30.30000000      90.00000000     360.00000000      51.71543998       1.77949938
      30.40000000      90.00000000     360.00000000      51.71548586       1.77950096
      30.50000000      90.00000000     360.00000000      51.71553174       1.77950254
      30.60000000      90.00000000     360.00000000      51.71557763       1.77950412
      30.70000000      90.00000000     360.00000000      51.71562352       1.77950570
      30.80000000      90.00000000     360.00000000      51.71566942       1.77950728
      30.90000000      90.00000000     360.00000000      51.71571532       1.77950886
      31.00000000      90.00000000     360.00000000      51.71576123       1.77951044
      31.10000000      90.00000000     360.00000000      51.71580715       1.77951202
      31.20000000      90.00000000     360.00000000      51.71585307       1.77951360
      31.30000000      90.00000000     360.00000000      51.71589899       1.77951518
      31.40000000      90.00000000     360.00000000      51.71594492       1.77951676
      31.50000000      90.00000000     360.00000000      51.71599086       1.77951834
      31.60000000      90.00000000     360.00000000      51.71603680       1.77951992
      31.70000000      90.00000000     360.00000000      51.71608275       1.77952150
      31.80000000      90.00000000     360.00000000      51.71612870       1.77952308
      31.90000000      90.00000000     360.00000000      51.71617466       1.77952466
      32.00000000      90.00000000     360.00000000      51.71622063       1.77952625
      32.10000000      90.00000000     360.00000000      51.71626660       1.77952783
      32.20000000      90.00000000     360.00000000      51.71631257       1.77952941
      32.30000000      90.00000000     360.00000000      51.71635856       1.77953099
      32.40000000      90.00000000     360.00000000      51.71640454       1.77953257
      32.50000000      90.00000000     360.00000000      51.71645054       1.77953416
      32.60000000      90.00000000     360.00000000      51.71649653       1.77953574
      32.70000000      90.00000000     360.00000000      51.71654254       1.77953732
      32.80000000      90.00000000     360.00000000      51.71658855       1.77953891
      32.90000000      90.00000000     360.00000000      51.71663456       1.77954049
      33.00000000      90.00000000     360.00000000      51.71668058       1.77954207
      33.10000000      90.00000000     360.00000000      51.71672661       1.77954366
      33.20000000      90.00000000     360.00000000      51.71677264       1.77954524
      33.30000000      90.00000000     360.00000000      51.71681867       1.77954682
      33.40000000      90.00000000     360.00000000      51.71686472       1.77954841
      33.50000000      90.00000000     360.00000000      51.71691076       1.77954999
      33.60000000      90.00000000     360.00000000      51.71695682       1.77955158
      33.70000000      90.00000000     360.00000000      51.71700288       1.77955316
      33.80000000      90.00000000     360.00000000      51.71704894       1.77955475
      33.90000000      90.00000000     360.00000000      51.71709501       1.77955633
      34.00000000      90.00000000     360.00000000      51.71714109       1.77955792
      34.10000000      90.00000000     360.00000000      51.71718717       1.77955950
      34.20000000      90.00000000     360.00000000      51.71723326       1.77956109
      34.30000000      90.00000000     360.00000000      51.71727935       1.77956268
      34.40000000      90.00000000     360.00000000      51.71732545       1.77956426
      34.50000000      90.00000000     360.00000000      51.71737155       1.77956585
      34.60000000      90.00000000     360.00000000      51.71741766       1.77956743
      34.70000000      90.00000000     360.00000000      51.71746377       1.77956902
      34.80000000      90.00000000     360.00000000      51.71750989       1.77957061
      34.90000000      90.00000000     360.00000000      51.71755602       1.77957220
      35.00000000      90.00000000     360.00000000      51.71760215       1.77957378
      35.10000000      90.00000000     360.00000000      51.71764829       1.77957537
      35.20000000      90.00000000     360.00000000      51.71769443       1.77957696
      35.30000000      90.00000000     360.00000000      51.71774058       1.77957855
      35.40000000      90.00000000     360.00000000      51.71778673       1.77958013
      35.50000000      90.00000000     360.00000000      51.71783289       1.77958172
      35.60000000      90.00000000     360.00000000      51.71787906       1.77958331
      35.70000000      90.00000000     360.00000000      51.71792523       1.77958490
      35.80000000      90.00000000     360.00000000      51.71797141       1.77958649
      35.90000000      90.00000000     360.00000000      51.71801759       1.77958808
      36.00000000      90.00000000     360.00000000      51.71806377       1.77958967
      36.10000000      90.00000000     360.00000000      51.71810997       1.77959126
      36.20000000      90.00000000     360.00000000      51.71815617       1.77959285
      36.30000000      90.00000000     360.00000000      51.71820237       1.77959444
      36.40000000      90.00000000     360.00000000      51.71824858       1.77959603
      36.50000000      90.00000000     360.00000000      51.71829479       1.77959762
      36.60000000      90.00000000     360.00000000      51.71834102       1.77959921
      36.70000000      90.00000000     360.00000000      51.71838724       1.77960080
      36.80000000      90.00000000     360.00000000      51.71843347       1.77960239
      36.90000000      90.00000000     360.00000000      51.71847971       1.77960398
      37.00000000      90.00000000     360.00000000      51.71852595       1.77960557
      37.10000000      90.00000000     360.00000000      51.71857220       1.77960716
      37.20000000      90.00000000     360.00000000      51.71861846       1.77960875
      37.30000000      90.00000000     360.00000000      51.71866472       1.77961035
      37.40000000      90.00000000     360.00000000      51.71871098       1.77961194
      37.50000000      90.00000000     360.00000000      51.71875725       1.77961353
      37.60000000      90.00000000     360.00000000      51.71880353       1.77961512
      37.70000000      90.00000000     360.00000000      51.71884981       1.77961671
      37.80000000      90.00000000     360.00000000      51.71889610       1.77961831
      37.90000000      90.00000000     360.00000000      51.71894240       1.77961990
      38.00000000      90.00000000     360.00000000      51.71898870       1.77962149
      38.10000000      90.00000000     360.00000000      51.71903500       1.77962309
      38.20000000      90.00000000     360.00000000      51.71908131       1.77962468
      38.30000000      90.00000000     360.00000000      51.71912763       1.77962627
      38.40000000      90.00000000     360.00000000      51.71917395       1.77962787
      38.50000000      90.00000000     360.00000000      51.71922028       1.77962946
      38.60000000      90.00000000     360.00000000      51.71926661       1.77963106
      38.70000000      90.00000000     360.00000000      51.71931295       1.77963265
      38.80000000      90.00000000     360.00000000      51.71935929       1.77963425
      38.90000000      90.00000000     360.00000000      51.71940564       1.77963584
      39.00000000      90.00000000     360.00000000      51.71945200       1.77963743
      39.10000000      90.00000000     360.00000000      51.71949836       1.77963903
      39.20000000      90.00000000     360.00000000      51.71954472       1.77964063
      39.30000000      90.00000000     360.00000000      51.71959110       1.77964222
      39.40000000      90.00000000     360.00000000      51.71963747       1.77964382
      39.50000000      90.00000000     360.00000000      51.71968386       1.77964541
      39.60000000      90.00000000     360.00000000      51.71973025       1.77964701
      39.70000000      90.00000000     360.00000000      51.71977664       1.77964861
      39.80000000      90.00000000     360.00000000      51.71982304       1.77965020
      39.90000000      90.00000000     360.00000000      51.71986945       1.77965180
      40.00000000      90.00000000     360.00000000      51.71991586       1.77965340
