 # applied field (T), theta (degree), phi (degree), abs for RE 3-4
     0.00000    90.00000   220.14474     3.61500    90.00000   229.85526     3.61500
     0.10000    90.00000   220.14457     3.61499    90.00000   229.85543     3.61499
     0.20000    90.00000   220.14440     3.61499    90.00000   229.85560     3.61499
     0.30000    90.00000   220.14423     3.61498    90.00000   229.85577     3.61498
     0.40000    90.00000   220.14407     3.61497    90.00000   229.85593     3.61497
     0.50000    90.00000   220.14390     3.61497    90.00000   229.85610     3.61497
     0.60000    90.00000   220.14373     3.61496    90.00000   229.85627     3.61496
     0.70000    90.00000   220.14356     3.61495    90.00000   229.85644     3.61495
     0.80000    90.00000   220.14340     3.61495    90.00000   229.85660     3.61495
     0.90000    90.00000   220.14323     3.61494    90.00000   229.85677     3.61494
     1.00000    90.00000   220.14306     3.61493    90.00000   229.85694     3.61493
     1.10000    90.00000   220.14289     3.61493    90.00000   229.85711     3.61493
     1.20000    90.00000   220.14273     3.61492    90.00000   229.85727     3.61492
     1.30000    90.00000   220.14256     3.61491    90.00000   229.85744     3.61491
     1.40000    90.00000   220.14239     3.61491    90.00000   229.85761     3.61491
     1.50000    90.00000   220.14222     3.61490    90.00000   229.85778     3.61490
     1.60000    90.00000   220.14206     3.61489    90.00000   229.85794     3.61489
     1.70000    90.00000   220.14189     3.61489    90.00000   229.85811     3.61489
     1.80000    90.00000   220.14172     3.61488    90.00000   229.85828     3.61488
     1.90000    90.00000   220.14155     3.61487    90.00000   229.85845     3.61487
     2.00000    90.00000   220.14138     3.61487    90.00000   229.85862     3.61487
     2.10000    90.00000   220.14122     3.61486    90.00000   229.85878     3.61486
     2.20000    90.00000   220.14105     3.61485    90.00000   229.85895     3.61485
     2.30000    90.00000   220.14088     3.61485    90.00000   229.85912     3.61485
     2.40000    90.00000   220.14071     3.61484    90.00000   229.85929     3.61484
     2.50000    90.00000   220.14055     3.61483    90.00000   229.85945     3.61483
     2.60000    90.00000   220.14038     3.61483    90.00000   229.85962     3.61483
     2.70000    90.00000   220.14021     3.61482    90.00000   229.85979     3.61482
     2.80000    90.00000   220.14004     3.61481    90.00000   229.85996     3.61481
     2.90000    90.00000   220.13987     3.61481    90.00000   229.86013     3.61481
     3.00000    90.00000   220.13971     3.61480    90.00000   229.86029     3.61480
     3.10000    90.00000   220.13954     3.61479    90.00000   229.86046     3.61479
     3.20000    90.00000   220.13937     3.61479    90.00000   229.86063     3.61479
     3.30000    90.00000   220.13920     3.61478    90.00000   229.86080     3.61478
     3.40000    90.00000   220.13904     3.61477    90.00000   229.86096     3.61477
     3.50000    90.00000   220.13887     3.61476    90.00000   229.86113     3.61476
     3.60000    90.00000   220.13870     3.61476    90.00000   229.86130     3.61476
     3.70000    90.00000   220.13853     3.61475    90.00000   229.86147     3.61475
     3.80000    90.00000   220.13836     3.61474    90.00000   229.86164     3.61474
     3.90000    90.00000   220.13820     3.61474    90.00000   229.86180     3.61474
     4.00000    90.00000   220.13803     3.61473    90.00000   229.86197     3.61473
     4.10000    90.00000   220.13786     3.61472    90.00000   229.86214     3.61472
     4.20000    90.00000   220.13769     3.61472    90.00000   229.86231     3.61472
     4.30000    90.00000   220.13752     3.61471    90.00000   229.86248     3.61471
     4.40000    90.00000   220.13736     3.61470    90.00000   229.86264     3.61470
     4.50000    90.00000   220.13719     3.61469    90.00000   229.86281     3.61469
     4.60000    90.00000   220.13702     3.61469    90.00000   229.86298     3.61469
     4.70000    90.00000   220.13685     3.61468    90.00000   229.86315     3.61468
     4.80000    90.00000   220.13668     3.61467    90.00000   229.86332     3.61467
     4.90000    90.00000   220.13652     3.61466    90.00000   229.86348     3.61466
     5.00000    90.00000   220.13635     3.61466    90.00000   229.86365     3.61466
     5.10000    90.00000   220.13618     3.61465    90.00000   229.86382     3.61465
     5.20000    90.00000   220.13601     3.61464    90.00000   229.86399     3.61464
     5.30000    90.00000   220.13584     3.61464    90.00000   229.86416     3.61464
     5.40000    90.00000   220.13567     3.61463    90.00000   229.86433     3.61463
     5.50000    90.00000   220.13551     3.61462    90.00000   229.86449     3.61462
     5.60000    90.00000   220.13534     3.61461    90.00000   229.86466     3.61461
     5.70000    90.00000   220.13517     3.61461    90.00000   229.86483     3.61461
     5.80000    90.00000   220.13500     3.61460    90.00000   229.86500     3.61460
     5.90000    90.00000   220.13483     3.61459    90.00000   229.86517     3.61459
     6.00000    90.00000   220.13467     3.61458    90.00000   229.86533     3.61458
     6.10000    90.00000   220.13450     3.61458    90.00000   229.86550     3.61458
     6.20000    90.00000   220.13433     3.61457    90.00000   229.86567     3.61457
     6.30000    90.00000   220.13416     3.61456    90.00000   229.86584     3.61456
     6.40000    90.00000   220.13399     3.61455    90.00000   229.86601     3.61455
     6.50000    90.00000   220.13382     3.61455    90.00000   229.86618     3.61455
     6.60000    90.00000   220.13366     3.61454    90.00000   229.86634     3.61454
     6.70000    90.00000   220.13349     3.61453    90.00000   229.86651     3.61453
     6.80000    90.00000   220.13332     3.61452    90.00000   229.86668     3.61452
     6.90000    90.00000   220.13315     3.61452    90.00000   229.86685     3.61452
     7.00000    90.00000   220.13298     3.61451    90.00000   229.86702     3.61451
     7.10000    90.00000   220.13281     3.61450    90.00000   229.86719     3.61450
     7.20000    90.00000   220.13265     3.61449    90.00000   229.86735     3.61449
     7.30000    90.00000   220.13248     3.61448    90.00000   229.86752     3.61448
     7.40000    90.00000   220.13231     3.61448    90.00000   229.86769     3.61448
     7.50000    90.00000   220.13214     3.61447    90.00000   229.86786     3.61447
     7.60000    90.00000   220.13197     3.61446    90.00000   229.86803     3.61446
     7.70000    90.00000   220.13180     3.61445    90.00000   229.86820     3.61445
     7.80000    90.00000   220.13163     3.61445    90.00000   229.86837     3.61445
     7.90000    90.00000   220.13147     3.61444    90.00000   229.86853     3.61444
     8.00000    90.00000   220.13130     3.61443    90.00000   229.86870     3.61443
     8.10000    90.00000   220.13113     3.61442    90.00000   229.86887     3.61442
     8.20000    90.00000   220.13096     3.61441    90.00000   229.86904     3.61441
     8.30000    90.00000   220.13079     3.61441    90.00000   229.86921     3.61441
     8.40000    90.00000   220.13062     3.61440    90.00000   229.86938     3.61440
     8.50000    90.00000   220.13045     3.61439    90.00000   229.86955     3.61439
     8.60000    90.00000   220.13029     3.61438    90.00000   229.86971     3.61438
     8.70000    90.00000   220.13012     3.61437    90.00000   229.86988     3.61437
     8.80000    90.00000   220.12995     3.61437    90.00000   229.87005     3.61437
     8.90000    90.00000   220.12978     3.61436    90.00000   229.87022     3.61436
     9.00000    90.00000   220.12961     3.61435    90.00000   229.87039     3.61435
     9.10000    90.00000   220.12944     3.61434    90.00000   229.87056     3.61434
     9.20000    90.00000   220.12927     3.61433    90.00000   229.87073     3.61433
     9.30000    90.00000   220.12910     3.61433    90.00000   229.87090     3.61433
     9.40000    90.00000   220.12894     3.61432    90.00000   229.87106     3.61432
     9.50000    90.00000   220.12877     3.61431    90.00000   229.87123     3.61431
     9.60000    90.00000   220.12860     3.61430    90.00000   229.87140     3.61430
     9.70000    90.00000   220.12843     3.61429    90.00000   229.87157     3.61429
     9.80000    90.00000   220.12826     3.61429    90.00000   229.87174     3.61429
     9.90000    90.00000   220.12809     3.61428    90.00000   229.87191     3.61428
    10.00000    90.00000   220.12792     3.61427    90.00000   229.87208     3.61427
    10.10000    90.00000   220.12775     3.61426    90.00000   229.87225     3.61426
    10.20000    90.00000   220.12759     3.61425    90.00000   229.87241     3.61425
    10.30000    90.00000   220.12742     3.61424    90.00000   229.87258     3.61424
    10.40000    90.00000   220.12725     3.61424    90.00000   229.87275     3.61424
    10.50000    90.00000   220.12708     3.61423    90.00000   229.87292     3.61423
    10.60000    90.00000   220.12691     3.61422    90.00000   229.87309     3.61422
    10.70000    90.00000   220.12674     3.61421    90.00000   229.87326     3.61421
    10.80000    90.00000   220.12657     3.61420    90.00000   229.87343     3.61420
    10.90000    90.00000   220.12640     3.61419    90.00000   229.87360     3.61419
    11.00000    90.00000   220.12623     3.61419    90.00000   229.87377     3.61419
    11.10000    90.00000   220.12607     3.61418    90.00000   229.87393     3.61418
    11.20000    90.00000   220.12590     3.61417    90.00000   229.87410     3.61417
    11.30000    90.00000   220.12573     3.61416    90.00000   229.87427     3.61416
    11.40000    90.00000   220.12556     3.61415    90.00000   229.87444     3.61415
    11.50000    90.00000   220.12539     3.61414    90.00000   229.87461     3.61414
    11.60000    90.00000   220.12522     3.61413    90.00000   229.87478     3.61413
    11.70000    90.00000   220.12505     3.61413    90.00000   229.87495     3.61413
    11.80000    90.00000   220.12488     3.61412    90.00000   229.87512     3.61412
    11.90000    90.00000   220.12471     3.61411    90.00000   229.87529     3.61411
    12.00000    90.00000   220.12454     3.61410    90.00000   229.87546     3.61410
    12.10000    90.00000   220.12438     3.61409    90.00000   229.87562     3.61409
    12.20000    90.00000   220.12421     3.61408    90.00000   229.87579     3.61408
    12.30000    90.00000   220.12404     3.61407    90.00000   229.87596     3.61407
    12.40000    90.00000   220.12387     3.61407    90.00000   229.87613     3.61407
    12.50000    90.00000   220.12370     3.61406    90.00000   229.87630     3.61406
    12.60000    90.00000   220.12353     3.61405    90.00000   229.87647     3.61405
    12.70000    90.00000   220.12336     3.61404    90.00000   229.87664     3.61404
    12.80000    90.00000   220.12319     3.61403    90.00000   229.87681     3.61403
    12.90000    90.00000   220.12302     3.61402    90.00000   229.87698     3.61402
    13.00000    90.00000   220.12285     3.61401    90.00000   229.87715     3.61401
    13.10000    90.00000   220.12268     3.61400    90.00000   229.87732     3.61400
    13.20000    90.00000   220.12251     3.61400    90.00000   229.87749     3.61400
    13.30000    90.00000   220.12234     3.61399    90.00000   229.87766     3.61399
    13.40000    90.00000   220.12218     3.61398    90.00000   229.87782     3.61398
    13.50000    90.00000   220.12201     3.61397    90.00000   229.87799     3.61397
    13.60000    90.00000   220.12184     3.61396    90.00000   229.87816     3.61396
    13.70000    90.00000   220.12167     3.61395    90.00000   229.87833     3.61395
    13.80000    90.00000   220.12150     3.61394    90.00000   229.87850     3.61394
    13.90000    90.00000   220.12133     3.61393    90.00000   229.87867     3.61393
    14.00000    90.00000   220.12116     3.61392    90.00000   229.87884     3.61392
    14.10000    90.00000   220.12099     3.61392    90.00000   229.87901     3.61392
    14.20000    90.00000   220.12082     3.61391    90.00000   229.87918     3.61391
    14.30000    90.00000   220.12065     3.61390    90.00000   229.87935     3.61390
    14.40000    90.00000   220.12048     3.61389    90.00000   229.87952     3.61389
    14.50000    90.00000   220.12031     3.61388    90.00000   229.87969     3.61388
    14.60000    90.00000   220.12014     3.61387    90.00000   229.87986     3.61387
    14.70000    90.00000   220.11997     3.61386    90.00000   229.88003     3.61386
    14.80000    90.00000   220.11980     3.61385    90.00000   229.88020     3.61385
    14.90000    90.00000   220.11963     3.61384    90.00000   229.88037     3.61384
    15.00000    90.00000   220.11946     3.61383    90.00000   229.88054     3.61383
    15.10000    90.00000   220.11929     3.61382    90.00000   229.88071     3.61382
    15.20000    90.00000   220.11912     3.61382    90.00000   229.88088     3.61382
    15.30000    90.00000   220.11896     3.61381    90.00000   229.88104     3.61381
    15.40000    90.00000   220.11879     3.61380    90.00000   229.88121     3.61380
    15.50000    90.00000   220.11862     3.61379    90.00000   229.88138     3.61379
    15.60000    90.00000   220.11845     3.61378    90.00000   229.88155     3.61378
    15.70000    90.00000   220.11828     3.61377    90.00000   229.88172     3.61377
    15.80000    90.00000   220.11811     3.61376    90.00000   229.88189     3.61376
    15.90000    90.00000   220.11794     3.61375    90.00000   229.88206     3.61375
    16.00000    90.00000   220.11777     3.61374    90.00000   229.88223     3.61374
    16.10000    90.00000   220.11760     3.61373    90.00000   229.88240     3.61373
    16.20000    90.00000   220.11743     3.61372    90.00000   229.88257     3.61372
    16.30000    90.00000   220.11726     3.61371    90.00000   229.88274     3.61371
    16.40000    90.00000   220.11709     3.61370    90.00000   229.88291     3.61370
    16.50000    90.00000   220.11692     3.61369    90.00000   229.88308     3.61369
    16.60000    90.00000   220.11675     3.61368    90.00000   229.88325     3.61368
    16.70000    90.00000   220.11658     3.61367    90.00000   229.88342     3.61367
    16.80000    90.00000   220.11641     3.61367    90.00000   229.88359     3.61367
    16.90000    90.00000   220.11624     3.61366    90.00000   229.88376     3.61366
    17.00000    90.00000   220.11607     3.61365    90.00000   229.88393     3.61365
    17.10000    90.00000   220.11590     3.61364    90.00000   229.88410     3.61364
    17.20000    90.00000   220.11573     3.61363    90.00000   229.88427     3.61363
    17.30000    90.00000   220.11556     3.61362    90.00000   229.88444     3.61362
    17.40000    90.00000   220.11539     3.61361    90.00000   229.88461     3.61361
    17.50000    90.00000   220.11522     3.61360    90.00000   229.88478     3.61360
    17.60000    90.00000   220.11505     3.61359    90.00000   229.88495     3.61359
    17.70000    90.00000   220.11488     3.61358    90.00000   229.88512     3.61358
    17.80000    90.00000   220.11471     3.61357    90.00000   229.88529     3.61357
    17.90000    90.00000   220.11454     3.61356    90.00000   229.88546     3.61356
    18.00000    90.00000   220.11437     3.61355    90.00000   229.88563     3.61355
    18.10000    90.00000   220.11420     3.61354    90.00000   229.88580     3.61354
    18.20000    90.00000   220.11403     3.61353    90.00000   229.88597     3.61353
    18.30000    90.00000   220.11386     3.61352    90.00000   229.88614     3.61352
    18.40000    90.00000   220.11369     3.61351    90.00000   229.88631     3.61351
    18.50000    90.00000   220.11352     3.61350    90.00000   229.88648     3.61350
    18.60000    90.00000   220.11335     3.61349    90.00000   229.88665     3.61349
    18.70000    90.00000   220.11318     3.61348    90.00000   229.88682     3.61348
    18.80000    90.00000   220.11301     3.61347    90.00000   229.88699     3.61347
    18.90000    90.00000   220.11284     3.61346    90.00000   229.88716     3.61346
    19.00000    90.00000   220.11267     3.61345    90.00000   229.88733     3.61345
    19.10000    90.00000   220.11250     3.61344    90.00000   229.88750     3.61344
    19.20000    90.00000   220.11233     3.61343    90.00000   229.88767     3.61343
    19.30000    90.00000   220.11216     3.61342    90.00000   229.88784     3.61342
    19.40000    90.00000   220.11199     3.61341    90.00000   229.88801     3.61341
    19.50000    90.00000   220.11182     3.61340    90.00000   229.88818     3.61340
    19.60000    90.00000   220.11165     3.61339    90.00000   229.88835     3.61339
    19.70000    90.00000   220.11148     3.61338    90.00000   229.88852     3.61338
    19.80000    90.00000   220.11131     3.61337    90.00000   229.88869     3.61337
    19.90000    90.00000   220.11114     3.61336    90.00000   229.88886     3.61336
    20.00000    90.00000   220.11097     3.61335    90.00000   229.88903     3.61335
    20.10000    90.00000   220.11080     3.61334    90.00000   229.88920     3.61334
    20.20000    90.00000   220.11063     3.61333    90.00000   229.88937     3.61333
    20.30000    90.00000   220.11046     3.61332    90.00000   229.88954     3.61332
    20.40000    90.00000   220.11029     3.61331    90.00000   229.88971     3.61331
    20.50000    90.00000   220.11011     3.61330    90.00000   229.88989     3.61330
    20.60000    90.00000   220.10994     3.61329    90.00000   229.89006     3.61329
    20.70000    90.00000   220.10977     3.61328    90.00000   229.89023     3.61328
    20.80000    90.00000   220.10960     3.61327    90.00000   229.89040     3.61327
    20.90000    90.00000   220.10943     3.61326    90.00000   229.89057     3.61326
    21.00000    90.00000   220.10926     3.61325    90.00000   229.89074     3.61325
    21.10000    90.00000   220.10909     3.61324    90.00000   229.89091     3.61324
    21.20000    90.00000   220.10892     3.61323    90.00000   229.89108     3.61323
    21.30000    90.00000   220.10875     3.61322    90.00000   229.89125     3.61322
    21.40000    90.00000   220.10858     3.61321    90.00000   229.89142     3.61321
    21.50000    90.00000   220.10841     3.61320    90.00000   229.89159     3.61320
    21.60000    90.00000   220.10824     3.61319    90.00000   229.89176     3.61319
    21.70000    90.00000   220.10807     3.61318    90.00000   229.89193     3.61318
    21.80000    90.00000   220.10790     3.61316    90.00000   229.89210     3.61316
    21.90000    90.00000   220.10773     3.61315    90.00000   229.89227     3.61315
    22.00000    90.00000   220.10756     3.61314    90.00000   229.89244     3.61314
    22.10000    90.00000   220.10739     3.61313    90.00000   229.89261     3.61313
    22.20000    90.00000   220.10722     3.61312    90.00000   229.89278     3.61312
    22.30000    90.00000   220.10704     3.61311    90.00000   229.89296     3.61311
    22.40000    90.00000   220.10687     3.61310    90.00000   229.89313     3.61310
    22.50000    90.00000   220.10670     3.61309    90.00000   229.89330     3.61309
    22.60000    90.00000   220.10653     3.61308    90.00000   229.89347     3.61308
    22.70000    90.00000   220.10636     3.61307    90.00000   229.89364     3.61307
    22.80000    90.00000   220.10619     3.61306    90.00000   229.89381     3.61306
    22.90000    90.00000   220.10602     3.61305    90.00000   229.89398     3.61305
    23.00000    90.00000   220.10585     3.61304    90.00000   229.89415     3.61304
    23.10000    90.00000   220.10568     3.61303    90.00000   229.89432     3.61303
    23.20000    90.00000   220.10551     3.61302    90.00000   229.89449     3.61302
    23.30000    90.00000   220.10534     3.61301    90.00000   229.89466     3.61301
    23.40000    90.00000   220.10517     3.61299    90.00000   229.89483     3.61299
    23.50000    90.00000   220.10499     3.61298    90.00000   229.89501     3.61298
    23.60000    90.00000   220.10482     3.61297    90.00000   229.89518     3.61297
    23.70000    90.00000   220.10465     3.61296    90.00000   229.89535     3.61296
    23.80000    90.00000   220.10448     3.61295    90.00000   229.89552     3.61295
    23.90000    90.00000   220.10431     3.61294    90.00000   229.89569     3.61294
    24.00000    90.00000   220.10414     3.61293    90.00000   229.89586     3.61293
    24.10000    90.00000   220.10397     3.61292    90.00000   229.89603     3.61292
    24.20000    90.00000   220.10380     3.61291    90.00000   229.89620     3.61291
    24.30000    90.00000   220.10363     3.61290    90.00000   229.89637     3.61290
    24.40000    90.00000   220.10346     3.61289    90.00000   229.89654     3.61289
    24.50000    90.00000   220.10328     3.61287    90.00000   229.89672     3.61287
    24.60000    90.00000   220.10311     3.61286    90.00000   229.89689     3.61286
    24.70000    90.00000   220.10294     3.61285    90.00000   229.89706     3.61285
    24.80000    90.00000   220.10277     3.61284    90.00000   229.89723     3.61284
    24.90000    90.00000   220.10260     3.61283    90.00000   229.89740     3.61283
    25.00000    90.00000   220.10243     3.61282    90.00000   229.89757     3.61282
    25.10000    90.00000   220.10226     3.61281    90.00000   229.89774     3.61281
    25.20000    90.00000   220.10209     3.61280    90.00000   229.89791     3.61280
    25.30000    90.00000   220.10192     3.61279    90.00000   229.89808     3.61279
    25.40000    90.00000   220.10174     3.61278    90.00000   229.89826     3.61278
    25.50000    90.00000   220.10157     3.61276    90.00000   229.89843     3.61276
    25.60000    90.00000   220.10140     3.61275    90.00000   229.89860     3.61275
    25.70000    90.00000   220.10123     3.61274    90.00000   229.89877     3.61274
    25.80000    90.00000   220.10106     3.61273    90.00000   229.89894     3.61273
    25.90000    90.00000   220.10089     3.61272    90.00000   229.89911     3.61272
    26.00000    90.00000   220.10072     3.61271    90.00000   229.89928     3.61271
    26.10000    90.00000   220.10055     3.61270    90.00000   229.89945     3.61270
    26.20000    90.00000   220.10037     3.61269    90.00000   229.89963     3.61269
    26.30000    90.00000   220.10020     3.61267    90.00000   229.89980     3.61267
    26.40000    90.00000   220.10003     3.61266    90.00000   229.89997     3.61266
    26.50000    90.00000   220.09986     3.61265    90.00000   229.90014     3.61265
    26.60000    90.00000   220.09969     3.61264    90.00000   229.90031     3.61264
    26.70000    90.00000   220.09952     3.61263    90.00000   229.90048     3.61263
    26.80000    90.00000   220.09935     3.61262    90.00000   229.90065     3.61262
    26.90000    90.00000   220.09917     3.61261    90.00000   229.90083     3.61261
    27.00000    90.00000   220.09900     3.61259    90.00000   229.90100     3.61259
    27.10000    90.00000   220.09883     3.61258    90.00000   229.90117     3.61258
    27.20000    90.00000   220.09866     3.61257    90.00000   229.90134     3.61257
    27.30000    90.00000   220.09849     3.61256    90.00000   229.90151     3.61256
    27.40000    90.00000   220.09832     3.61255    90.00000   229.90168     3.61255
    27.50000    90.00000   220.09814     3.61254    90.00000   229.90186     3.61254
    27.60000    90.00000   220.09797     3.61253    90.00000   229.90203     3.61253
    27.70000    90.00000   220.09780     3.61251    90.00000   229.90220     3.61251
    27.80000    90.00000   220.09763     3.61250    90.00000   229.90237     3.61250
    27.90000    90.00000   220.09746     3.61249    90.00000   229.90254     3.61249
    28.00000    90.00000   220.09729     3.61248    90.00000   229.90271     3.61248
    28.10000    90.00000   220.09711     3.61247    90.00000   229.90289     3.61247
    28.20000    90.00000   220.09694     3.61246    90.00000   229.90306     3.61246
    28.30000    90.00000   220.09677     3.61244    90.00000   229.90323     3.61244
    28.40000    90.00000   220.09660     3.61243    90.00000   229.90340     3.61243
    28.50000    90.00000   220.09643     3.61242    90.00000   229.90357     3.61242
    28.60000    90.00000   220.09626     3.61241    90.00000   229.90374     3.61241
    28.70000    90.00000   220.09608     3.61240    90.00000   229.90392     3.61240
    28.80000    90.00000   220.09591     3.61238    90.00000   229.90409     3.61238
    28.90000    90.00000   220.09574     3.61237    90.00000   229.90426     3.61237
    29.00000    90.00000   220.09557     3.61236    90.00000   229.90443     3.61236
    29.10000    90.00000   220.09540     3.61235    90.00000   229.90460     3.61235
    29.20000    90.00000   220.09522     3.61234    90.00000   229.90478     3.61234
    29.30000    90.00000   220.09505     3.61233    90.00000   229.90495     3.61233
    29.40000    90.00000   220.09488     3.61231    90.00000   229.90512     3.61231
    29.50000    90.00000   220.09471     3.61230    90.00000   229.90529     3.61230
    29.60000    90.00000   220.09454     3.61229    90.00000   229.90546     3.61229
    29.70000    90.00000   220.09437     3.61228    90.00000   229.90563     3.61228
    29.80000    90.00000   220.09419     3.61227    90.00000   229.90581     3.61227
    29.90000    90.00000   220.09402     3.61225    90.00000   229.90598     3.61225
    30.00000    90.00000   220.09385     3.61224    90.00000   229.90615     3.61224
    30.10000    90.00000   220.09368     3.61223    90.00000   229.90632     3.61223
    30.20000    90.00000   220.09350     3.61222    90.00000   229.90650     3.61222
    30.30000    90.00000   220.09333     3.61221    90.00000   229.90667     3.61221
    30.40000    90.00000   220.09316     3.61219    90.00000   229.90684     3.61219
    30.50000    90.00000   220.09299     3.61218    90.00000   229.90701     3.61218
    30.60000    90.00000   220.09282     3.61217    90.00000   229.90718     3.61217
    30.70000    90.00000   220.09264     3.61216    90.00000   229.90736     3.61216
    30.80000    90.00000   220.09247     3.61214    90.00000   229.90753     3.61214
    30.90000    90.00000   220.09230     3.61213    90.00000   229.90770     3.61213
    31.00000    90.00000   220.09213     3.61212    90.00000   229.90787     3.61212
    31.10000    90.00000   220.09196     3.61211    90.00000   229.90804     3.61211
    31.20000    90.00000   220.09178     3.61210    90.00000   229.90822     3.61210
    31.30000    90.00000   220.09161     3.61208    90.00000   229.90839     3.61208
    31.40000    90.00000   220.09144     3.61207    90.00000   229.90856     3.61207
    31.50000    90.00000   220.09127     3.61206    90.00000   229.90873     3.61206
    31.60000    90.00000   220.09109     3.61205    90.00000   229.90891     3.61205
    31.70000    90.00000   220.09092     3.61203    90.00000   229.90908     3.61203
    31.80000    90.00000   220.09075     3.61202    90.00000   229.90925     3.61202
    31.90000    90.00000   220.09058     3.61201    90.00000   229.90942     3.61201
    32.00000    90.00000   220.09040     3.61200    90.00000   229.90960     3.61200
    32.10000    90.00000   220.09023     3.61198    90.00000   229.90977     3.61198
    32.20000    90.00000   220.09006     3.61197    90.00000   229.90994     3.61197
    32.30000    90.00000   220.08989     3.61196    90.00000   229.91011     3.61196
    32.40000    90.00000   220.08972     3.61195    90.00000   229.91028     3.61195
    32.50000    90.00000   220.08954     3.61193    90.00000   229.91046     3.61193
    32.60000    90.00000   220.08937     3.61192    90.00000   229.91063     3.61192
    32.70000    90.00000   220.08920     3.61191    90.00000   229.91080     3.61191
    32.80000    90.00000   220.08903     3.61190    90.00000   229.91097     3.61190
    32.90000    90.00000   220.08885     3.61188    90.00000   229.91115     3.61188
    33.00000    90.00000   220.08868     3.61187    90.00000   229.91132     3.61187
    33.10000    90.00000   220.08851     3.61186    90.00000   229.91149     3.61186
    33.20000    90.00000   220.08833     3.61185    90.00000   229.91167     3.61185
    33.30000    90.00000   220.08816     3.61183    90.00000   229.91184     3.61183
    33.40000    90.00000   220.08799     3.61182    90.00000   229.91201     3.61182
    33.50000    90.00000   220.08782     3.61181    90.00000   229.91218     3.61181
    33.60000    90.00000   220.08764     3.61180    90.00000   229.91236     3.61180
    33.70000    90.00000   220.08747     3.61178    90.00000   229.91253     3.61178
    33.80000    90.00000   220.08730     3.61177    90.00000   229.91270     3.61177
    33.90000    90.00000   220.08713     3.61176    90.00000   229.91287     3.61176
    34.00000    90.00000   220.08695     3.61175    90.00000   229.91305     3.61175
    34.10000    90.00000   220.08678     3.61173    90.00000   229.91322     3.61173
    34.20000    90.00000   220.08661     3.61172    90.00000   229.91339     3.61172
    34.30000    90.00000   220.08643     3.61171    90.00000   229.91357     3.61171
    34.40000    90.00000   220.08626     3.61169    90.00000   229.91374     3.61169
    34.50000    90.00000   220.08609     3.61168    90.00000   229.91391     3.61168
    34.60000    90.00000   220.08592     3.61167    90.00000   229.91408     3.61167
    34.70000    90.00000   220.08574     3.61166    90.00000   229.91426     3.61166
    34.80000    90.00000   220.08557     3.61164    90.00000   229.91443     3.61164
    34.90000    90.00000   220.08540     3.61163    90.00000   229.91460     3.61163
    35.00000    90.00000   220.08522     3.61162    90.00000   229.91478     3.61162
    35.10000    90.00000   220.08505     3.61160    90.00000   229.91495     3.61160
    35.20000    90.00000   220.08488     3.61159    90.00000   229.91512     3.61159
    35.30000    90.00000   220.08471     3.61158    90.00000   229.91529     3.61158
    35.40000    90.00000   220.08453     3.61156    90.00000   229.91547     3.61156
    35.50000    90.00000   220.08436     3.61155    90.00000   229.91564     3.61155
    35.60000    90.00000   220.08419     3.61154    90.00000   229.91581     3.61154
    35.70000    90.00000   220.08401     3.61152    90.00000   229.91599     3.61152
    35.80000    90.00000   220.08384     3.61151    90.00000   229.91616     3.61151
    35.90000    90.00000   220.08367     3.61150    90.00000   229.91633     3.61150
    36.00000    90.00000   220.08349     3.61149    90.00000   229.91651     3.61149
    36.10000    90.00000   220.08332     3.61147    90.00000   229.91668     3.61147
    36.20000    90.00000   220.08315     3.61146    90.00000   229.91685     3.61146
    36.30000    90.00000   220.08297     3.61145    90.00000   229.91703     3.61145
    36.40000    90.00000   220.08280     3.61143    90.00000   229.91720     3.61143
    36.50000    90.00000   220.08263     3.61142    90.00000   229.91737     3.61142
    36.60000    90.00000   220.08246     3.61141    90.00000   229.91754     3.61141
    36.70000    90.00000   220.08228     3.61139    90.00000   229.91772     3.61139
    36.80000    90.00000   220.08211     3.61138    90.00000   229.91789     3.61138
    36.90000    90.00000   220.08194     3.61137    90.00000   229.91806     3.61137
    37.00000    90.00000   220.08176     3.61135    90.00000   229.91824     3.61135
    37.10000    90.00000   220.08159     3.61134    90.00000   229.91841     3.61134
    37.20000    90.00000   220.08142     3.61133    90.00000   229.91858     3.61133
    37.30000    90.00000   220.08124     3.61131    90.00000   229.91876     3.61131
    37.40000    90.00000   220.08107     3.61130    90.00000   229.91893     3.61130
    37.50000    90.00000   220.08090     3.61129    90.00000   229.91910     3.61129
    37.60000    90.00000   220.08072     3.61127    90.00000   229.91928     3.61127
    37.70000    90.00000   220.08055     3.61126    90.00000   229.91945     3.61126
    37.80000    90.00000   220.08038     3.61125    90.00000   229.91962     3.61125
    37.90000    90.00000   220.08020     3.61123    90.00000   229.91980     3.61123
    38.00000    90.00000   220.08003     3.61122    90.00000   229.91997     3.61122
    38.10000    90.00000   220.07985     3.61120    90.00000   229.92015     3.61120
    38.20000    90.00000   220.07968     3.61119    90.00000   229.92032     3.61119
    38.30000    90.00000   220.07951     3.61118    90.00000   229.92049     3.61118
    38.40000    90.00000   220.07933     3.61116    90.00000   229.92067     3.61116
    38.50000    90.00000   220.07916     3.61115    90.00000   229.92084     3.61115
    38.60000    90.00000   220.07899     3.61114    90.00000   229.92101     3.61114
    38.70000    90.00000   220.07881     3.61112    90.00000   229.92119     3.61112
    38.80000    90.00000   220.07864     3.61111    90.00000   229.92136     3.61111
    38.90000    90.00000   220.07847     3.61110    90.00000   229.92153     3.61110
    39.00000    90.00000   220.07829     3.61108    90.00000   229.92171     3.61108
    39.10000    90.00000   220.07812     3.61107    90.00000   229.92188     3.61107
    39.20000    90.00000   220.07794     3.61105    90.00000   229.92206     3.61105
    39.30000    90.00000   220.07777     3.61104    90.00000   229.92223     3.61104
    39.40000    90.00000   220.07760     3.61103    90.00000   229.92240     3.61103
    39.50000    90.00000   220.07742     3.61101    90.00000   229.92258     3.61101
    39.60000    90.00000   220.07725     3.61100    90.00000   229.92275     3.61100
    39.70000    90.00000   220.07708     3.61098    90.00000   229.92292     3.61098
    39.80000    90.00000   220.07690     3.61097    90.00000   229.92310     3.61097
    39.90000    90.00000   220.07673     3.61096    90.00000   229.92327     3.61096
    40.00000    90.00000   220.07655     3.61094    90.00000   229.92345     3.61094
