 # applied field (T), theta (degree), phi (degree), abs [muB/unitcell], abs [T]
       0.00000000       0.00000000       0.00000000      46.45198008       1.55288044
       0.10000000       0.39871121      45.00000000      46.45198307       1.55288054
       0.20000000       0.79742361      45.00000000      46.45199205       1.55288084
       0.30000000       1.19613838      45.00000000      46.45200700       1.55288134
       0.40000000       1.59485672      45.00000000      46.45202795       1.55288204
       0.50000000       1.99357980      45.00000000      46.45205489       1.55288294
       0.60000000       2.33544658      45.00000000      46.45208354       1.55288390
       0.70000000       2.73418161      45.00000000      46.45212177       1.55288518
       0.80000000       3.13292476      45.00000000      46.45216602       1.55288666
       0.90000000       3.53167721      45.00000000      46.45221630       1.55288834
       1.00000000       3.93044014      45.00000000      46.45227263       1.55289022
       1.10000000       4.32921473      45.00000000      46.45233501       1.55289231
       1.20000000       4.72800215      45.00000000      46.45240347       1.55289460
       1.30000000       5.12680356      45.00000000      46.45247803       1.55289709
       1.40000000       5.52562012      45.00000000      46.45255869       1.55289979
       1.50000000       5.92445301      45.00000000      46.45264549       1.55290269
       1.60000000       6.32330337      45.00000000      46.45273843       1.55290580
