 # applied field (T), theta (degree), phi (degree), abs for RE 3-4
     0.00000    90.00000    38.67224     3.50174    90.00000    51.32776     3.50174
     0.10000    90.00000    38.67250     3.50185    90.00000    51.32750     3.50185
     0.20000    90.00000    38.67275     3.50196    90.00000    51.32725     3.50196
     0.30000    90.00000    38.67301     3.50207    90.00000    51.32699     3.50207
     0.40000    90.00000    38.67326     3.50218    90.00000    51.32674     3.50218
     0.50000    90.00000    38.67352     3.50229    90.00000    51.32648     3.50229
     0.60000    90.00000    38.67377     3.50240    90.00000    51.32623     3.50240
     0.70000    90.00000    38.67403     3.50251    90.00000    51.32597     3.50251
     0.80000    90.00000    38.67428     3.50262    90.00000    51.32572     3.50262
     0.90000    90.00000    38.67454     3.50273    90.00000    51.32546     3.50273
     1.00000    90.00000    38.67479     3.50284    90.00000    51.32521     3.50284
     1.10000    90.00000    38.67504     3.50294    90.00000    51.32496     3.50294
     1.20000    90.00000    38.67530     3.50305    90.00000    51.32470     3.50305
     1.30000    90.00000    38.67555     3.50316    90.00000    51.32445     3.50316
     1.40000    90.00000    38.67581     3.50327    90.00000    51.32419     3.50327
     1.50000    90.00000    38.67606     3.50338    90.00000    51.32394     3.50338
     1.60000    90.00000    38.67632     3.50349    90.00000    51.32368     3.50349
     1.70000    90.00000    38.67657     3.50360    90.00000    51.32343     3.50360
     1.80000    90.00000    38.67682     3.50371    90.00000    51.32318     3.50371
     1.90000    90.00000    38.67708     3.50382    90.00000    51.32292     3.50382
     2.00000    90.00000    38.67733     3.50392    90.00000    51.32267     3.50392
     2.10000    90.00000    38.67759     3.50403    90.00000    51.32241     3.50403
     2.20000    90.00000    38.67784     3.50414    90.00000    51.32216     3.50414
     2.30000    90.00000    38.67809     3.50425    90.00000    51.32191     3.50425
     2.40000    90.00000    38.67835     3.50436    90.00000    51.32165     3.50436
     2.50000    90.00000    38.67860     3.50447    90.00000    51.32140     3.50447
     2.60000    90.00000    38.67885     3.50458    90.00000    51.32115     3.50458
     2.70000    90.00000    38.67911     3.50469    90.00000    51.32089     3.50469
     2.80000    90.00000    38.67936     3.50479    90.00000    51.32064     3.50479
     2.90000    90.00000    38.67962     3.50490    90.00000    51.32038     3.50490
     3.00000    90.00000    38.67987     3.50501    90.00000    51.32013     3.50501
     3.10000    90.00000    38.68012     3.50512    90.00000    51.31988     3.50512
     3.20000    90.00000    38.68038     3.50523    90.00000    51.31962     3.50523
     3.30000    90.00000    38.68063     3.50534    90.00000    51.31937     3.50534
     3.40000    90.00000    38.68088     3.50545    90.00000    51.31912     3.50545
     3.50000    90.00000    38.68114     3.50555    90.00000    51.31886     3.50555
     3.60000    90.00000    38.68139     3.50566    90.00000    51.31861     3.50566
     3.70000    90.00000    38.68164     3.50577    90.00000    51.31836     3.50577
     3.80000    90.00000    38.68190     3.50588    90.00000    51.31810     3.50588
     3.90000    90.00000    38.68215     3.50599    90.00000    51.31785     3.50599
     4.00000    90.00000    38.68240     3.50609    90.00000    51.31760     3.50609
     4.10000    90.00000    38.68266     3.50620    90.00000    51.31734     3.50620
     4.20000    90.00000    38.68291     3.50631    90.00000    51.31709     3.50631
     4.30000    90.00000    38.68316     3.50642    90.00000    51.31684     3.50642
     4.40000    90.00000    38.68341     3.50653    90.00000    51.31659     3.50653
     4.50000    90.00000    38.68367     3.50664    90.00000    51.31633     3.50664
     4.60000    90.00000    38.68392     3.50674    90.00000    51.31608     3.50674
     4.70000    90.00000    38.68417     3.50685    90.00000    51.31583     3.50685
     4.80000    90.00000    38.68443     3.50696    90.00000    51.31557     3.50696
     4.90000    90.00000    38.68468     3.50707    90.00000    51.31532     3.50707
     5.00000    90.00000    38.68493     3.50718    90.00000    51.31507     3.50718
     5.10000    90.00000    38.68518     3.50728    90.00000    51.31482     3.50728
     5.20000    90.00000    38.68544     3.50739    90.00000    51.31456     3.50739
     5.30000    90.00000    38.68569     3.50750    90.00000    51.31431     3.50750
     5.40000    90.00000    38.68594     3.50761    90.00000    51.31406     3.50761
     5.50000    90.00000    38.68619     3.50771    90.00000    51.31381     3.50771
     5.60000    90.00000    38.68645     3.50782    90.00000    51.31355     3.50782
     5.70000    90.00000    38.68670     3.50793    90.00000    51.31330     3.50793
     5.80000    90.00000    38.68695     3.50804    90.00000    51.31305     3.50804
     5.90000    90.00000    38.68720     3.50815    90.00000    51.31280     3.50815
     6.00000    90.00000    38.68746     3.50825    90.00000    51.31254     3.50825
     6.10000    90.00000    38.68771     3.50836    90.00000    51.31229     3.50836
     6.20000    90.00000    38.68796     3.50847    90.00000    51.31204     3.50847
     6.30000    90.00000    38.68821     3.50858    90.00000    51.31179     3.50858
     6.40000    90.00000    38.68847     3.50868    90.00000    51.31153     3.50868
     6.50000    90.00000    38.68872     3.50879    90.00000    51.31128     3.50879
     6.60000    90.00000    38.68897     3.50890    90.00000    51.31103     3.50890
     6.70000    90.00000    38.68922     3.50901    90.00000    51.31078     3.50901
     6.80000    90.00000    38.68947     3.50911    90.00000    51.31053     3.50911
     6.90000    90.00000    38.68973     3.50922    90.00000    51.31027     3.50922
     7.00000    90.00000    38.68998     3.50933    90.00000    51.31002     3.50933
     7.10000    90.00000    38.69023     3.50944    90.00000    51.30977     3.50944
     7.20000    90.00000    38.69048     3.50954    90.00000    51.30952     3.50954
     7.30000    90.00000    38.69073     3.50965    90.00000    51.30927     3.50965
     7.40000    90.00000    38.69098     3.50976    90.00000    51.30902     3.50976
     7.50000    90.00000    38.69124     3.50986    90.00000    51.30876     3.50986
     7.60000    90.00000    38.69149     3.50997    90.00000    51.30851     3.50997
     7.70000    90.00000    38.69174     3.51008    90.00000    51.30826     3.51008
     7.80000    90.00000    38.69199     3.51019    90.00000    51.30801     3.51019
     7.90000    90.00000    38.69224     3.51029    90.00000    51.30776     3.51029
     8.00000    90.00000    38.69249     3.51040    90.00000    51.30751     3.51040
     8.10000    90.00000    38.69275     3.51051    90.00000    51.30725     3.51051
     8.20000    90.00000    38.69300     3.51061    90.00000    51.30700     3.51061
     8.30000    90.00000    38.69325     3.51072    90.00000    51.30675     3.51072
     8.40000    90.00000    38.69350     3.51083    90.00000    51.30650     3.51083
     8.50000    90.00000    38.69375     3.51093    90.00000    51.30625     3.51093
     8.60000    90.00000    38.69400     3.51104    90.00000    51.30600     3.51104
     8.70000    90.00000    38.69425     3.51115    90.00000    51.30575     3.51115
     8.80000    90.00000    38.69450     3.51126    90.00000    51.30550     3.51126
     8.90000    90.00000    38.69476     3.51136    90.00000    51.30524     3.51136
     9.00000    90.00000    38.69501     3.51147    90.00000    51.30499     3.51147
     9.10000    90.00000    38.69526     3.51158    90.00000    51.30474     3.51158
     9.20000    90.00000    38.69551     3.51168    90.00000    51.30449     3.51168
     9.30000    90.00000    38.69576     3.51179    90.00000    51.30424     3.51179
     9.40000    90.00000    38.69601     3.51190    90.00000    51.30399     3.51190
     9.50000    90.00000    38.69626     3.51200    90.00000    51.30374     3.51200
     9.60000    90.00000    38.69651     3.51211    90.00000    51.30349     3.51211
     9.70000    90.00000    38.69676     3.51222    90.00000    51.30324     3.51222
     9.80000    90.00000    38.69701     3.51232    90.00000    51.30299     3.51232
     9.90000    90.00000    38.69726     3.51243    90.00000    51.30274     3.51243
    10.00000    90.00000    38.69751     3.51253    90.00000    51.30249     3.51253
    10.10000    90.00000    38.69777     3.51264    90.00000    51.30223     3.51264
    10.20000    90.00000    38.69802     3.51275    90.00000    51.30198     3.51275
    10.30000    90.00000    38.69827     3.51285    90.00000    51.30173     3.51285
    10.40000    90.00000    38.69852     3.51296    90.00000    51.30148     3.51296
    10.50000    90.00000    38.69877     3.51307    90.00000    51.30123     3.51307
    10.60000    90.00000    38.69902     3.51317    90.00000    51.30098     3.51317
    10.70000    90.00000    38.69927     3.51328    90.00000    51.30073     3.51328
    10.80000    90.00000    38.69952     3.51339    90.00000    51.30048     3.51339
    10.90000    90.00000    38.69977     3.51349    90.00000    51.30023     3.51349
    11.00000    90.00000    38.70002     3.51360    90.00000    51.29998     3.51360
    11.10000    90.00000    38.70027     3.51370    90.00000    51.29973     3.51370
    11.20000    90.00000    38.70052     3.51381    90.00000    51.29948     3.51381
    11.30000    90.00000    38.70077     3.51392    90.00000    51.29923     3.51392
    11.40000    90.00000    38.70102     3.51402    90.00000    51.29898     3.51402
    11.50000    90.00000    38.70127     3.51413    90.00000    51.29873     3.51413
    11.60000    90.00000    38.70152     3.51423    90.00000    51.29848     3.51423
    11.70000    90.00000    38.70177     3.51434    90.00000    51.29823     3.51434
    11.80000    90.00000    38.70202     3.51445    90.00000    51.29798     3.51445
    11.90000    90.00000    38.70227     3.51455    90.00000    51.29773     3.51455
    12.00000    90.00000    38.70252     3.51466    90.00000    51.29748     3.51466
    12.10000    90.00000    38.70277     3.51476    90.00000    51.29723     3.51476
    12.20000    90.00000    38.70302     3.51487    90.00000    51.29698     3.51487
    12.30000    90.00000    38.70327     3.51498    90.00000    51.29673     3.51498
    12.40000    90.00000    38.70352     3.51508    90.00000    51.29648     3.51508
    12.50000    90.00000    38.70377     3.51519    90.00000    51.29623     3.51519
    12.60000    90.00000    38.70402     3.51529    90.00000    51.29598     3.51529
    12.70000    90.00000    38.70427     3.51540    90.00000    51.29573     3.51540
    12.80000    90.00000    38.70451     3.51550    90.00000    51.29549     3.51550
    12.90000    90.00000    38.70476     3.51561    90.00000    51.29524     3.51561
    13.00000    90.00000    38.70501     3.51571    90.00000    51.29499     3.51571
    13.10000    90.00000    38.70526     3.51582    90.00000    51.29474     3.51582
    13.20000    90.00000    38.70551     3.51593    90.00000    51.29449     3.51593
    13.30000    90.00000    38.70576     3.51603    90.00000    51.29424     3.51603
    13.40000    90.00000    38.70601     3.51614    90.00000    51.29399     3.51614
    13.50000    90.00000    38.70626     3.51624    90.00000    51.29374     3.51624
    13.60000    90.00000    38.70651     3.51635    90.00000    51.29349     3.51635
    13.70000    90.00000    38.70676     3.51645    90.00000    51.29324     3.51645
    13.80000    90.00000    38.70701     3.51656    90.00000    51.29299     3.51656
    13.90000    90.00000    38.70726     3.51666    90.00000    51.29274     3.51666
    14.00000    90.00000    38.70750     3.51677    90.00000    51.29250     3.51677
    14.10000    90.00000    38.70775     3.51687    90.00000    51.29225     3.51687
    14.20000    90.00000    38.70800     3.51698    90.00000    51.29200     3.51698
    14.30000    90.00000    38.70825     3.51708    90.00000    51.29175     3.51708
    14.40000    90.00000    38.70850     3.51719    90.00000    51.29150     3.51719
    14.50000    90.00000    38.70875     3.51730    90.00000    51.29125     3.51730
    14.60000    90.00000    38.70900     3.51740    90.00000    51.29100     3.51740
    14.70000    90.00000    38.70925     3.51751    90.00000    51.29075     3.51751
    14.80000    90.00000    38.70949     3.51761    90.00000    51.29051     3.51761
    14.90000    90.00000    38.70974     3.51772    90.00000    51.29026     3.51772
    15.00000    90.00000    38.70999     3.51782    90.00000    51.29001     3.51782
    15.10000    90.00000    38.71024     3.51793    90.00000    51.28976     3.51793
    15.20000    90.00000    38.71049     3.51803    90.00000    51.28951     3.51803
    15.30000    90.00000    38.71074     3.51814    90.00000    51.28926     3.51814
    15.40000    90.00000    38.71099     3.51824    90.00000    51.28901     3.51824
    15.50000    90.00000    38.71123     3.51834    90.00000    51.28877     3.51834
    15.60000    90.00000    38.71148     3.51845    90.00000    51.28852     3.51845
    15.70000    90.00000    38.71173     3.51855    90.00000    51.28827     3.51855
    15.80000    90.00000    38.71198     3.51866    90.00000    51.28802     3.51866
    15.90000    90.00000    38.71223     3.51876    90.00000    51.28777     3.51876
    16.00000    90.00000    38.71247     3.51887    90.00000    51.28753     3.51887
    16.10000    90.00000    38.71272     3.51897    90.00000    51.28728     3.51897
    16.20000    90.00000    38.71297     3.51908    90.00000    51.28703     3.51908
    16.30000    90.00000    38.71322     3.51918    90.00000    51.28678     3.51918
    16.40000    90.00000    38.71347     3.51929    90.00000    51.28653     3.51929
    16.50000    90.00000    38.71371     3.51939    90.00000    51.28629     3.51939
    16.60000    90.00000    38.71396     3.51950    90.00000    51.28604     3.51950
    16.70000    90.00000    38.71421     3.51960    90.00000    51.28579     3.51960
    16.80000    90.00000    38.71446     3.51971    90.00000    51.28554     3.51971
    16.90000    90.00000    38.71470     3.51981    90.00000    51.28530     3.51981
    17.00000    90.00000    38.71495     3.51991    90.00000    51.28505     3.51991
    17.10000    90.00000    38.71520     3.52002    90.00000    51.28480     3.52002
    17.20000    90.00000    38.71545     3.52012    90.00000    51.28455     3.52012
    17.30000    90.00000    38.71570     3.52023    90.00000    51.28430     3.52023
    17.40000    90.00000    38.71594     3.52033    90.00000    51.28406     3.52033
    17.50000    90.00000    38.71619     3.52044    90.00000    51.28381     3.52044
    17.60000    90.00000    38.71644     3.52054    90.00000    51.28356     3.52054
    17.70000    90.00000    38.71668     3.52064    90.00000    51.28332     3.52064
    17.80000    90.00000    38.71693     3.52075    90.00000    51.28307     3.52075
    17.90000    90.00000    38.71718     3.52085    90.00000    51.28282     3.52085
    18.00000    90.00000    38.71743     3.52096    90.00000    51.28257     3.52096
    18.10000    90.00000    38.71767     3.52106    90.00000    51.28233     3.52106
    18.20000    90.00000    38.71792     3.52116    90.00000    51.28208     3.52116
    18.30000    90.00000    38.71817     3.52127    90.00000    51.28183     3.52127
    18.40000    90.00000    38.71842     3.52137    90.00000    51.28158     3.52137
    18.50000    90.00000    38.71866     3.52148    90.00000    51.28134     3.52148
    18.60000    90.00000    38.71891     3.52158    90.00000    51.28109     3.52158
    18.70000    90.00000    38.71916     3.52168    90.00000    51.28084     3.52168
    18.80000    90.00000    38.71940     3.52179    90.00000    51.28060     3.52179
    18.90000    90.00000    38.71965     3.52189    90.00000    51.28035     3.52189
    19.00000    90.00000    38.71990     3.52200    90.00000    51.28010     3.52200
    19.10000    90.00000    38.72014     3.52210    90.00000    51.27986     3.52210
    19.20000    90.00000    38.72039     3.52220    90.00000    51.27961     3.52220
    19.30000    90.00000    38.72064     3.52231    90.00000    51.27936     3.52231
    19.40000    90.00000    38.72088     3.52241    90.00000    51.27912     3.52241
    19.50000    90.00000    38.72113     3.52252    90.00000    51.27887     3.52252
    19.60000    90.00000    38.72138     3.52262    90.00000    51.27862     3.52262
    19.70000    90.00000    38.72162     3.52272    90.00000    51.27838     3.52272
    19.80000    90.00000    38.72187     3.52283    90.00000    51.27813     3.52283
    19.90000    90.00000    38.72212     3.52293    90.00000    51.27788     3.52293
    20.00000    90.00000    38.72236     3.52303    90.00000    51.27764     3.52303
    20.10000    90.00000    38.72261     3.52314    90.00000    51.27739     3.52314
    20.20000    90.00000    38.72285     3.52324    90.00000    51.27715     3.52324
    20.30000    90.00000    38.72310     3.52334    90.00000    51.27690     3.52334
    20.40000    90.00000    38.72335     3.52345    90.00000    51.27665     3.52345
    20.50000    90.00000    38.72359     3.52355    90.00000    51.27641     3.52355
    20.60000    90.00000    38.72384     3.52365    90.00000    51.27616     3.52365
    20.70000    90.00000    38.72409     3.52376    90.00000    51.27591     3.52376
    20.80000    90.00000    38.72433     3.52386    90.00000    51.27567     3.52386
    20.90000    90.00000    38.72458     3.52396    90.00000    51.27542     3.52396
    21.00000    90.00000    38.72482     3.52407    90.00000    51.27518     3.52407
    21.10000    90.00000    38.72507     3.52417    90.00000    51.27493     3.52417
    21.20000    90.00000    38.72532     3.52427    90.00000    51.27468     3.52427
    21.30000    90.00000    38.72556     3.52438    90.00000    51.27444     3.52438
    21.40000    90.00000    38.72581     3.52448    90.00000    51.27419     3.52448
    21.50000    90.00000    38.72605     3.52458    90.00000    51.27395     3.52458
    21.60000    90.00000    38.72630     3.52469    90.00000    51.27370     3.52469
    21.70000    90.00000    38.72654     3.52479    90.00000    51.27346     3.52479
    21.80000    90.00000    38.72679     3.52489    90.00000    51.27321     3.52489
    21.90000    90.00000    38.72704     3.52500    90.00000    51.27296     3.52500
    22.00000    90.00000    38.72728     3.52510    90.00000    51.27272     3.52510
    22.10000    90.00000    38.72753     3.52520    90.00000    51.27247     3.52520
    22.20000    90.00000    38.72777     3.52530    90.00000    51.27223     3.52530
    22.30000    90.00000    38.72802     3.52541    90.00000    51.27198     3.52541
    22.40000    90.00000    38.72826     3.52551    90.00000    51.27174     3.52551
    22.50000    90.00000    38.72851     3.52561    90.00000    51.27149     3.52561
    22.60000    90.00000    38.72875     3.52572    90.00000    51.27125     3.52572
    22.70000    90.00000    38.72900     3.52582    90.00000    51.27100     3.52582
    22.80000    90.00000    38.72924     3.52592    90.00000    51.27076     3.52592
    22.90000    90.00000    38.72949     3.52602    90.00000    51.27051     3.52602
    23.00000    90.00000    38.72973     3.52613    90.00000    51.27027     3.52613
    23.10000    90.00000    38.72998     3.52623    90.00000    51.27002     3.52623
    23.20000    90.00000    38.73022     3.52633    90.00000    51.26978     3.52633
    23.30000    90.00000    38.73047     3.52643    90.00000    51.26953     3.52643
    23.40000    90.00000    38.73071     3.52654    90.00000    51.26929     3.52654
    23.50000    90.00000    38.73096     3.52664    90.00000    51.26904     3.52664
    23.60000    90.00000    38.73120     3.52674    90.00000    51.26880     3.52674
    23.70000    90.00000    38.73145     3.52684    90.00000    51.26855     3.52684
    23.80000    90.00000    38.73169     3.52695    90.00000    51.26831     3.52695
    23.90000    90.00000    38.73194     3.52705    90.00000    51.26806     3.52705
    24.00000    90.00000    38.73218     3.52715    90.00000    51.26782     3.52715
    24.10000    90.00000    38.73243     3.52725    90.00000    51.26757     3.52725
    24.20000    90.00000    38.73267     3.52736    90.00000    51.26733     3.52736
    24.30000    90.00000    38.73292     3.52746    90.00000    51.26708     3.52746
    24.40000    90.00000    38.73316     3.52756    90.00000    51.26684     3.52756
    24.50000    90.00000    38.73341     3.52766    90.00000    51.26659     3.52766
    24.60000    90.00000    38.73365     3.52777    90.00000    51.26635     3.52777
    24.70000    90.00000    38.73389     3.52787    90.00000    51.26611     3.52787
    24.80000    90.00000    38.73414     3.52797    90.00000    51.26586     3.52797
    24.90000    90.00000    38.73438     3.52807    90.00000    51.26562     3.52807
    25.00000    90.00000    38.73463     3.52817    90.00000    51.26537     3.52817
    25.10000    90.00000    38.73487     3.52828    90.00000    51.26513     3.52828
    25.20000    90.00000    38.73512     3.52838    90.00000    51.26488     3.52838
    25.30000    90.00000    38.73536     3.52848    90.00000    51.26464     3.52848
    25.40000    90.00000    38.73560     3.52858    90.00000    51.26440     3.52858
    25.50000    90.00000    38.73585     3.52868    90.00000    51.26415     3.52868
    25.60000    90.00000    38.73609     3.52879    90.00000    51.26391     3.52879
    25.70000    90.00000    38.73634     3.52889    90.00000    51.26366     3.52889
    25.80000    90.00000    38.73658     3.52899    90.00000    51.26342     3.52899
    25.90000    90.00000    38.73682     3.52909    90.00000    51.26318     3.52909
    26.00000    90.00000    38.73707     3.52919    90.00000    51.26293     3.52919
    26.10000    90.00000    38.73731     3.52929    90.00000    51.26269     3.52929
    26.20000    90.00000    38.73755     3.52940    90.00000    51.26245     3.52940
    26.30000    90.00000    38.73780     3.52950    90.00000    51.26220     3.52950
    26.40000    90.00000    38.73804     3.52960    90.00000    51.26196     3.52960
    26.50000    90.00000    38.73829     3.52970    90.00000    51.26171     3.52970
    26.60000    90.00000    38.73853     3.52980    90.00000    51.26147     3.52980
    26.70000    90.00000    38.73877     3.52991    90.00000    51.26123     3.52991
    26.80000    90.00000    38.73902     3.53001    90.00000    51.26098     3.53001
    26.90000    90.00000    38.73926     3.53011    90.00000    51.26074     3.53011
    27.00000    90.00000    38.73950     3.53021    90.00000    51.26050     3.53021
    27.10000    90.00000    38.73975     3.53031    90.00000    51.26025     3.53031
    27.20000    90.00000    38.73999     3.53041    90.00000    51.26001     3.53041
    27.30000    90.00000    38.74023     3.53051    90.00000    51.25977     3.53051
    27.40000    90.00000    38.74048     3.53062    90.00000    51.25952     3.53062
    27.50000    90.00000    38.74072     3.53072    90.00000    51.25928     3.53072
    27.60000    90.00000    38.74096     3.53082    90.00000    51.25904     3.53082
    27.70000    90.00000    38.74121     3.53092    90.00000    51.25879     3.53092
    27.80000    90.00000    38.74145     3.53102    90.00000    51.25855     3.53102
    27.90000    90.00000    38.74169     3.53112    90.00000    51.25831     3.53112
    28.00000    90.00000    38.74193     3.53122    90.00000    51.25807     3.53122
    28.10000    90.00000    38.74218     3.53132    90.00000    51.25782     3.53132
    28.20000    90.00000    38.74242     3.53143    90.00000    51.25758     3.53143
    28.30000    90.00000    38.74266     3.53153    90.00000    51.25734     3.53153
    28.40000    90.00000    38.74291     3.53163    90.00000    51.25709     3.53163
    28.50000    90.00000    38.74315     3.53173    90.00000    51.25685     3.53173
    28.60000    90.00000    38.74339     3.53183    90.00000    51.25661     3.53183
    28.70000    90.00000    38.74363     3.53193    90.00000    51.25637     3.53193
    28.80000    90.00000    38.74388     3.53203    90.00000    51.25612     3.53203
    28.90000    90.00000    38.74412     3.53213    90.00000    51.25588     3.53213
    29.00000    90.00000    38.74436     3.53223    90.00000    51.25564     3.53223
    29.10000    90.00000    38.74460     3.53234    90.00000    51.25540     3.53234
    29.20000    90.00000    38.74485     3.53244    90.00000    51.25515     3.53244
    29.30000    90.00000    38.74509     3.53254    90.00000    51.25491     3.53254
    29.40000    90.00000    38.74533     3.53264    90.00000    51.25467     3.53264
    29.50000    90.00000    38.74557     3.53274    90.00000    51.25443     3.53274
    29.60000    90.00000    38.74582     3.53284    90.00000    51.25418     3.53284
    29.70000    90.00000    38.74606     3.53294    90.00000    51.25394     3.53294
    29.80000    90.00000    38.74630     3.53304    90.00000    51.25370     3.53304
    29.90000    90.00000    38.74654     3.53314    90.00000    51.25346     3.53314
    30.00000    90.00000    38.74678     3.53324    90.00000    51.25322     3.53324
    30.10000    90.00000    38.74703     3.53334    90.00000    51.25297     3.53334
    30.20000    90.00000    38.74727     3.53344    90.00000    51.25273     3.53344
    30.30000    90.00000    38.74751     3.53354    90.00000    51.25249     3.53354
    30.40000    90.00000    38.74775     3.53364    90.00000    51.25225     3.53364
    30.50000    90.00000    38.74799     3.53375    90.00000    51.25201     3.53375
    30.60000    90.00000    38.74824     3.53385    90.00000    51.25176     3.53385
    30.70000    90.00000    38.74848     3.53395    90.00000    51.25152     3.53395
    30.80000    90.00000    38.74872     3.53405    90.00000    51.25128     3.53405
    30.90000    90.00000    38.74896     3.53415    90.00000    51.25104     3.53415
    31.00000    90.00000    38.74920     3.53425    90.00000    51.25080     3.53425
    31.10000    90.00000    38.74945     3.53435    90.00000    51.25055     3.53435
    31.20000    90.00000    38.74969     3.53445    90.00000    51.25031     3.53445
    31.30000    90.00000    38.74993     3.53455    90.00000    51.25007     3.53455
    31.40000    90.00000    38.75017     3.53465    90.00000    51.24983     3.53465
    31.50000    90.00000    38.75041     3.53475    90.00000    51.24959     3.53475
    31.60000    90.00000    38.75065     3.53485    90.00000    51.24935     3.53485
    31.70000    90.00000    38.75089     3.53495    90.00000    51.24911     3.53495
    31.80000    90.00000    38.75114     3.53505    90.00000    51.24886     3.53505
    31.90000    90.00000    38.75138     3.53515    90.00000    51.24862     3.53515
    32.00000    90.00000    38.75162     3.53525    90.00000    51.24838     3.53525
    32.10000    90.00000    38.75186     3.53535    90.00000    51.24814     3.53535
    32.20000    90.00000    38.75210     3.53545    90.00000    51.24790     3.53545
    32.30000    90.00000    38.75234     3.53555    90.00000    51.24766     3.53555
    32.40000    90.00000    38.75258     3.53565    90.00000    51.24742     3.53565
    32.50000    90.00000    38.75282     3.53575    90.00000    51.24718     3.53575
    32.60000    90.00000    38.75306     3.53585    90.00000    51.24694     3.53585
    32.70000    90.00000    38.75331     3.53595    90.00000    51.24669     3.53595
    32.80000    90.00000    38.75355     3.53605    90.00000    51.24645     3.53605
    32.90000    90.00000    38.75379     3.53615    90.00000    51.24621     3.53615
    33.00000    90.00000    38.75403     3.53625    90.00000    51.24597     3.53625
    33.10000    90.00000    38.75427     3.53635    90.00000    51.24573     3.53635
    33.20000    90.00000    38.75451     3.53645    90.00000    51.24549     3.53645
    33.30000    90.00000    38.75475     3.53655    90.00000    51.24525     3.53655
    33.40000    90.00000    38.75499     3.53665    90.00000    51.24501     3.53665
    33.50000    90.00000    38.75523     3.53675    90.00000    51.24477     3.53675
    33.60000    90.00000    38.75547     3.53685    90.00000    51.24453     3.53685
    33.70000    90.00000    38.75571     3.53695    90.00000    51.24429     3.53695
    33.80000    90.00000    38.75595     3.53705    90.00000    51.24405     3.53705
    33.90000    90.00000    38.75619     3.53715    90.00000    51.24381     3.53715
    34.00000    90.00000    38.75643     3.53725    90.00000    51.24357     3.53725
    34.10000    90.00000    38.75667     3.53735    90.00000    51.24333     3.53735
    34.20000    90.00000    38.75691     3.53744    90.00000    51.24309     3.53744
    34.30000    90.00000    38.75716     3.53754    90.00000    51.24284     3.53754
    34.40000    90.00000    38.75740     3.53764    90.00000    51.24260     3.53764
    34.50000    90.00000    38.75764     3.53774    90.00000    51.24236     3.53774
    34.60000    90.00000    38.75788     3.53784    90.00000    51.24212     3.53784
    34.70000    90.00000    38.75812     3.53794    90.00000    51.24188     3.53794
    34.80000    90.00000    38.75836     3.53804    90.00000    51.24164     3.53804
    34.90000    90.00000    38.75860     3.53814    90.00000    51.24140     3.53814
    35.00000    90.00000    38.75884     3.53824    90.00000    51.24116     3.53824
    35.10000    90.00000    38.75908     3.53834    90.00000    51.24092     3.53834
    35.20000    90.00000    38.75932     3.53844    90.00000    51.24068     3.53844
    35.30000    90.00000    38.75956     3.53854    90.00000    51.24044     3.53854
    35.40000    90.00000    38.75980     3.53864    90.00000    51.24020     3.53864
    35.50000    90.00000    38.76004     3.53874    90.00000    51.23996     3.53874
    35.60000    90.00000    38.76027     3.53883    90.00000    51.23973     3.53883
    35.70000    90.00000    38.76051     3.53893    90.00000    51.23949     3.53893
    35.80000    90.00000    38.76075     3.53903    90.00000    51.23925     3.53903
    35.90000    90.00000    38.76099     3.53913    90.00000    51.23901     3.53913
    36.00000    90.00000    38.76123     3.53923    90.00000    51.23877     3.53923
    36.10000    90.00000    38.76147     3.53933    90.00000    51.23853     3.53933
    36.20000    90.00000    38.76171     3.53943    90.00000    51.23829     3.53943
    36.30000    90.00000    38.76195     3.53953    90.00000    51.23805     3.53953
    36.40000    90.00000    38.76219     3.53963    90.00000    51.23781     3.53963
    36.50000    90.00000    38.76243     3.53972    90.00000    51.23757     3.53972
    36.60000    90.00000    38.76267     3.53982    90.00000    51.23733     3.53982
    36.70000    90.00000    38.76291     3.53992    90.00000    51.23709     3.53992
    36.80000    90.00000    38.76315     3.54002    90.00000    51.23685     3.54002
    36.90000    90.00000    38.76339     3.54012    90.00000    51.23661     3.54012
    37.00000    90.00000    38.76363     3.54022    90.00000    51.23637     3.54022
    37.10000    90.00000    38.76387     3.54032    90.00000    51.23613     3.54032
    37.20000    90.00000    38.76410     3.54042    90.00000    51.23590     3.54042
    37.30000    90.00000    38.76434     3.54051    90.00000    51.23566     3.54051
    37.40000    90.00000    38.76458     3.54061    90.00000    51.23542     3.54061
    37.50000    90.00000    38.76482     3.54071    90.00000    51.23518     3.54071
    37.60000    90.00000    38.76506     3.54081    90.00000    51.23494     3.54081
    37.70000    90.00000    38.76530     3.54091    90.00000    51.23470     3.54091
    37.80000    90.00000    38.76554     3.54101    90.00000    51.23446     3.54101
    37.90000    90.00000    38.76578     3.54111    90.00000    51.23422     3.54111
    38.00000    90.00000    38.76602     3.54120    90.00000    51.23398     3.54120
    38.10000    90.00000    38.76625     3.54130    90.00000    51.23375     3.54130
    38.20000    90.00000    38.76649     3.54140    90.00000    51.23351     3.54140
    38.30000    90.00000    38.76673     3.54150    90.00000    51.23327     3.54150
    38.40000    90.00000    38.76697     3.54160    90.00000    51.23303     3.54160
    38.50000    90.00000    38.76721     3.54170    90.00000    51.23279     3.54170
    38.60000    90.00000    38.76745     3.54179    90.00000    51.23255     3.54179
    38.70000    90.00000    38.76768     3.54189    90.00000    51.23232     3.54189
    38.80000    90.00000    38.76792     3.54199    90.00000    51.23208     3.54199
    38.90000    90.00000    38.76816     3.54209    90.00000    51.23184     3.54209
    39.00000    90.00000    38.76840     3.54219    90.00000    51.23160     3.54219
    39.10000    90.00000    38.76864     3.54228    90.00000    51.23136     3.54228
    39.20000    90.00000    38.76888     3.54238    90.00000    51.23112     3.54238
    39.30000    90.00000    38.76911     3.54248    90.00000    51.23089     3.54248
    39.40000    90.00000    38.76935     3.54258    90.00000    51.23065     3.54258
    39.50000    90.00000    38.76959     3.54268    90.00000    51.23041     3.54268
    39.60000    90.00000    38.76983     3.54277    90.00000    51.23017     3.54277
    39.70000    90.00000    38.77007     3.54287    90.00000    51.22993     3.54287
    39.80000    90.00000    38.77030     3.54297    90.00000    51.22970     3.54297
    39.90000    90.00000    38.77054     3.54307    90.00000    51.22946     3.54307
    40.00000    90.00000    38.77078     3.54317    90.00000    51.22922     3.54317
