 # applied field (T), theta (degree), phi (degree), abs [muB/unitcell], abs [T]
       0.00000000      90.00000000      45.42851978      36.92440421       1.28580981
       0.10000000      90.00000000       0.85723630      36.92261338       1.28574745
       0.20000000      90.00000000     360.00000000      36.92285749       1.28575595
       0.30000000      90.00000000     360.00000000      36.92310338       1.28576451
       0.40000000      90.00000000     360.00000000      36.92334925       1.28577308
       0.50000000      90.00000000     360.00000000      36.92359510       1.28578164
       0.60000000      90.00000000     360.00000000      36.92384093       1.28579020
       0.70000000      90.00000000     360.00000000      36.92408674       1.28579876
       0.80000000      90.00000000     360.00000000      36.92433253       1.28580732
       0.90000000      90.00000000     360.00000000      36.92457830       1.28581587
       1.00000000      90.00000000     360.00000000      36.92482405       1.28582443
       1.10000000      90.00000000     360.00000000      36.92506978       1.28583299
       1.20000000      90.00000000     360.00000000      36.92531549       1.28584155
       1.30000000      90.00000000     360.00000000      36.92556118       1.28585010
       1.40000000      90.00000000     360.00000000      36.92580686       1.28585866
       1.50000000      90.00000000     360.00000000      36.92605251       1.28586721
       1.60000000      90.00000000     360.00000000      36.92629814       1.28587576
       1.70000000      90.00000000     360.00000000      36.92654376       1.28588432
       1.80000000      90.00000000     360.00000000      36.92678935       1.28589287
       1.90000000      90.00000000     360.00000000      36.92703493       1.28590142
       2.00000000      90.00000000     360.00000000      36.92728048       1.28590997
       2.10000000      90.00000000     360.00000000      36.92752602       1.28591852
       2.20000000      90.00000000     360.00000000      36.92777153       1.28592707
       2.30000000      90.00000000     360.00000000      36.92801703       1.28593562
       2.40000000      90.00000000     360.00000000      36.92826251       1.28594417
       2.50000000      90.00000000     360.00000000      36.92850796       1.28595272
       2.60000000      90.00000000     360.00000000      36.92875340       1.28596126
       2.70000000      90.00000000     360.00000000      36.92899882       1.28596981
       2.80000000      90.00000000     360.00000000      36.92924422       1.28597836
       2.90000000      90.00000000     360.00000000      36.92948960       1.28598690
       3.00000000      90.00000000     360.00000000      36.92973496       1.28599544
       3.10000000      90.00000000     360.00000000      36.92998030       1.28600399
       3.20000000      90.00000000     360.00000000      36.93022562       1.28601253
       3.30000000      90.00000000     360.00000000      36.93047093       1.28602107
       3.40000000      90.00000000     360.00000000      36.93071621       1.28602961
       3.50000000      90.00000000     360.00000000      36.93096147       1.28603815
       3.60000000      90.00000000     360.00000000      36.93120672       1.28604669
       3.70000000      90.00000000     360.00000000      36.93145194       1.28605523
       3.80000000      90.00000000     360.00000000      36.93169715       1.28606377
       3.90000000      90.00000000     360.00000000      36.93194233       1.28607231
       4.00000000      90.00000000     360.00000000      36.93218750       1.28608085
       4.10000000      90.00000000     360.00000000      36.93243265       1.28608938
       4.20000000      90.00000000     360.00000000      36.93267778       1.28609792
       4.30000000      90.00000000     360.00000000      36.93292289       1.28610646
       4.40000000      90.00000000     360.00000000      36.93316798       1.28611499
       4.50000000      90.00000000     360.00000000      36.93341305       1.28612353
       4.60000000      90.00000000     360.00000000      36.93365810       1.28613206
       4.70000000      90.00000000     360.00000000      36.93390313       1.28614059
       4.80000000      90.00000000     360.00000000      36.93414814       1.28614912
       4.90000000      90.00000000     360.00000000      36.93439314       1.28615765
       5.00000000      90.00000000     360.00000000      36.93463811       1.28616619
       5.10000000      90.00000000     360.00000000      36.93488307       1.28617472
       5.20000000      90.00000000     360.00000000      36.93512800       1.28618324
       5.30000000      90.00000000     360.00000000      36.93537292       1.28619177
       5.40000000      90.00000000     360.00000000      36.93561782       1.28620030
       5.50000000      90.00000000     360.00000000      36.93586269       1.28620883
       5.60000000      90.00000000     360.00000000      36.93610755       1.28621736
       5.70000000      90.00000000     360.00000000      36.93635239       1.28622588
       5.80000000      90.00000000     360.00000000      36.93659721       1.28623441
       5.90000000      90.00000000     360.00000000      36.93684202       1.28624293
       6.00000000      90.00000000     360.00000000      36.93708680       1.28625146
       6.10000000      90.00000000     360.00000000      36.93733156       1.28625998
       6.20000000      90.00000000     360.00000000      36.93757631       1.28626850
       6.30000000      90.00000000     360.00000000      36.93782103       1.28627702
       6.40000000      90.00000000     360.00000000      36.93806574       1.28628554
       6.50000000      90.00000000     360.00000000      36.93831043       1.28629407
       6.60000000      90.00000000     360.00000000      36.93855509       1.28630259
       6.70000000      90.00000000     360.00000000      36.93879974       1.28631110
       6.80000000      90.00000000     360.00000000      36.93904437       1.28631962
       6.90000000      90.00000000     360.00000000      36.93928898       1.28632814
       7.00000000      90.00000000     360.00000000      36.93953358       1.28633666
       7.10000000      90.00000000     360.00000000      36.93977815       1.28634518
       7.20000000      90.00000000     360.00000000      36.94002270       1.28635369
       7.30000000      90.00000000     360.00000000      36.94026724       1.28636221
       7.40000000      90.00000000     360.00000000      36.94051175       1.28637072
       7.50000000      90.00000000     360.00000000      36.94075625       1.28637924
       7.60000000      90.00000000     360.00000000      36.94100073       1.28638775
       7.70000000      90.00000000     360.00000000      36.94124519       1.28639626
       7.80000000      90.00000000     360.00000000      36.94148963       1.28640477
       7.90000000      90.00000000     360.00000000      36.94173405       1.28641329
       8.00000000      90.00000000     360.00000000      36.94197845       1.28642180
       8.10000000      90.00000000     360.00000000      36.94222284       1.28643031
       8.20000000      90.00000000     360.00000000      36.94246720       1.28643882
       8.30000000      90.00000000     360.00000000      36.94271155       1.28644732
       8.40000000      90.00000000     360.00000000      36.94295587       1.28645583
       8.50000000      90.00000000     360.00000000      36.94320018       1.28646434
       8.60000000      90.00000000     360.00000000      36.94344447       1.28647285
       8.70000000      90.00000000     360.00000000      36.94368874       1.28648135
       8.80000000      90.00000000     360.00000000      36.94393299       1.28648986
       8.90000000      90.00000000     360.00000000      36.94417722       1.28649836
       9.00000000      90.00000000     360.00000000      36.94442144       1.28650687
       9.10000000      90.00000000     360.00000000      36.94466563       1.28651537
       9.20000000      90.00000000     360.00000000      36.94490981       1.28652387
       9.30000000      90.00000000     360.00000000      36.94515396       1.28653238
       9.40000000      90.00000000     360.00000000      36.94539810       1.28654088
       9.50000000      90.00000000     360.00000000      36.94564222       1.28654938
       9.60000000      90.00000000     360.00000000      36.94588632       1.28655788
       9.70000000      90.00000000     360.00000000      36.94613041       1.28656638
       9.80000000      90.00000000     360.00000000      36.94637447       1.28657488
       9.90000000      90.00000000     360.00000000      36.94661851       1.28658338
      10.00000000      90.00000000     360.00000000      36.94686254       1.28659187
      10.10000000      90.00000000     360.00000000      36.94710655       1.28660037
      10.20000000      90.00000000     360.00000000      36.94735054       1.28660887
      10.30000000      90.00000000     360.00000000      36.94759451       1.28661736
      10.40000000      90.00000000     360.00000000      36.94783846       1.28662586
      10.50000000      90.00000000     360.00000000      36.94808239       1.28663435
      10.60000000      90.00000000     360.00000000      36.94832630       1.28664285
      10.70000000      90.00000000     360.00000000      36.94857020       1.28665134
      10.80000000      90.00000000     360.00000000      36.94881407       1.28665983
      10.90000000      90.00000000     360.00000000      36.94905793       1.28666832
      11.00000000      90.00000000     360.00000000      36.94930177       1.28667681
      11.10000000      90.00000000     360.00000000      36.94954559       1.28668530
      11.20000000      90.00000000     360.00000000      36.94978939       1.28669379
      11.30000000      90.00000000     360.00000000      36.95003318       1.28670228
      11.40000000      90.00000000     360.00000000      36.95027694       1.28671077
      11.50000000      90.00000000     360.00000000      36.95052069       1.28671926
      11.60000000      90.00000000     360.00000000      36.95076442       1.28672775
      11.70000000      90.00000000     360.00000000      36.95100813       1.28673623
      11.80000000      90.00000000     360.00000000      36.95125182       1.28674472
      11.90000000      90.00000000     360.00000000      36.95149549       1.28675321
      12.00000000      90.00000000     360.00000000      36.95173914       1.28676169
      12.10000000      90.00000000     360.00000000      36.95198278       1.28677017
      12.20000000      90.00000000     360.00000000      36.95222639       1.28677866
      12.30000000      90.00000000     360.00000000      36.95246999       1.28678714
      12.40000000      90.00000000     360.00000000      36.95271357       1.28679562
      12.50000000      90.00000000     360.00000000      36.95295713       1.28680410
      12.60000000      90.00000000     360.00000000      36.95320067       1.28681259
      12.70000000      90.00000000     360.00000000      36.95344420       1.28682107
      12.80000000      90.00000000     360.00000000      36.95368770       1.28682954
      12.90000000      90.00000000     360.00000000      36.95393119       1.28683802
      13.00000000      90.00000000     360.00000000      36.95417466       1.28684650
      13.10000000      90.00000000     360.00000000      36.95441811       1.28685498
      13.20000000      90.00000000     360.00000000      36.95466154       1.28686346
      13.30000000      90.00000000     360.00000000      36.95490496       1.28687193
      13.40000000      90.00000000     360.00000000      36.95514835       1.28688041
      13.50000000      90.00000000     360.00000000      36.95539173       1.28688888
      13.60000000      90.00000000     360.00000000      36.95563509       1.28689736
      13.70000000      90.00000000     360.00000000      36.95587843       1.28690583
      13.80000000      90.00000000     360.00000000      36.95612175       1.28691430
      13.90000000      90.00000000     360.00000000      36.95636505       1.28692278
      14.00000000      90.00000000     360.00000000      36.95660834       1.28693125
      14.10000000      90.00000000     360.00000000      36.95685160       1.28693972
      14.20000000      90.00000000     360.00000000      36.95709485       1.28694819
      14.30000000      90.00000000     360.00000000      36.95733808       1.28695666
      14.40000000      90.00000000     360.00000000      36.95758129       1.28696513
      14.50000000      90.00000000     360.00000000      36.95782449       1.28697360
      14.60000000      90.00000000     360.00000000      36.95806766       1.28698207
      14.70000000      90.00000000     360.00000000      36.95831082       1.28699053
      14.80000000      90.00000000     360.00000000      36.95855396       1.28699900
      14.90000000      90.00000000     360.00000000      36.95879708       1.28700747
      15.00000000      90.00000000     360.00000000      36.95904018       1.28701593
      15.10000000      90.00000000     360.00000000      36.95928327       1.28702440
      15.20000000      90.00000000     360.00000000      36.95952633       1.28703286
      15.30000000      90.00000000     360.00000000      36.95976938       1.28704133
      15.40000000      90.00000000     360.00000000      36.96001241       1.28704979
      15.50000000      90.00000000     360.00000000      36.96025542       1.28705825
      15.60000000      90.00000000     360.00000000      36.96049841       1.28706671
      15.70000000      90.00000000     360.00000000      36.96074139       1.28707517
      15.80000000      90.00000000     360.00000000      36.96098435       1.28708363
      15.90000000      90.00000000     360.00000000      36.96122728       1.28709209
      16.00000000      90.00000000     360.00000000      36.96147020       1.28710055
      16.10000000      90.00000000     360.00000000      36.96171311       1.28710901
      16.20000000      90.00000000     360.00000000      36.96195599       1.28711747
      16.30000000      90.00000000     360.00000000      36.96219886       1.28712593
      16.40000000      90.00000000     360.00000000      36.96244171       1.28713438
      16.50000000      90.00000000     360.00000000      36.96268454       1.28714284
      16.60000000      90.00000000     360.00000000      36.96292735       1.28715129
      16.70000000      90.00000000     360.00000000      36.96317014       1.28715975
      16.80000000      90.00000000     360.00000000      36.96341292       1.28716820
      16.90000000      90.00000000     360.00000000      36.96365568       1.28717666
      17.00000000      90.00000000     360.00000000      36.96389841       1.28718511
      17.10000000      90.00000000     360.00000000      36.96414114       1.28719356
      17.20000000      90.00000000     360.00000000      36.96438384       1.28720201
      17.30000000      90.00000000     360.00000000      36.96462653       1.28721046
      17.40000000      90.00000000     360.00000000      36.96486919       1.28721892
      17.50000000      90.00000000     360.00000000      36.96511184       1.28722736
      17.60000000      90.00000000     360.00000000      36.96535448       1.28723581
      17.70000000      90.00000000     360.00000000      36.96559709       1.28724426
      17.80000000      90.00000000     360.00000000      36.96583968       1.28725271
      17.90000000      90.00000000     360.00000000      36.96608226       1.28726116
      18.00000000      90.00000000     360.00000000      36.96632482       1.28726960
      18.10000000      90.00000000     360.00000000      36.96656736       1.28727805
      18.20000000      90.00000000     360.00000000      36.96680989       1.28728650
      18.30000000      90.00000000     360.00000000      36.96705240       1.28729494
      18.40000000      90.00000000     360.00000000      36.96729488       1.28730338
      18.50000000      90.00000000     360.00000000      36.96753735       1.28731183
      18.60000000      90.00000000     360.00000000      36.96777981       1.28732027
      18.70000000      90.00000000     360.00000000      36.96802224       1.28732871
      18.80000000      90.00000000     360.00000000      36.96826466       1.28733715
      18.90000000      90.00000000     360.00000000      36.96850706       1.28734560
      19.00000000      90.00000000     360.00000000      36.96874944       1.28735404
      19.10000000      90.00000000     360.00000000      36.96899180       1.28736248
      19.20000000      90.00000000     360.00000000      36.96923415       1.28737091
      19.30000000      90.00000000     360.00000000      36.96947647       1.28737935
      19.40000000      90.00000000     360.00000000      36.96971878       1.28738779
      19.50000000      90.00000000     360.00000000      36.96996108       1.28739623
      19.60000000      90.00000000     360.00000000      36.97020335       1.28740467
      19.70000000      90.00000000     360.00000000      36.97044561       1.28741310
      19.80000000      90.00000000     360.00000000      36.97068785       1.28742154
      19.90000000      90.00000000     360.00000000      36.97093007       1.28742997
      20.00000000      90.00000000     360.00000000      36.97117227       1.28743841
      20.10000000      90.00000000     360.00000000      36.97141446       1.28744684
      20.20000000      90.00000000     360.00000000      36.97165662       1.28745527
      20.30000000      90.00000000     360.00000000      36.97189877       1.28746370
      20.40000000      90.00000000     360.00000000      36.97214091       1.28747214
      20.50000000      90.00000000     360.00000000      36.97238302       1.28748057
      20.60000000      90.00000000     360.00000000      36.97262512       1.28748900
      20.70000000      90.00000000     360.00000000      36.97286720       1.28749743
      20.80000000      90.00000000     360.00000000      36.97310926       1.28750586
      20.90000000      90.00000000     360.00000000      36.97335130       1.28751429
      21.00000000      90.00000000     360.00000000      36.97359333       1.28752271
      21.10000000      90.00000000     360.00000000      36.97383534       1.28753114
      21.20000000      90.00000000     360.00000000      36.97407733       1.28753957
      21.30000000      90.00000000     360.00000000      36.97431931       1.28754799
      21.40000000      90.00000000     360.00000000      36.97456126       1.28755642
      21.50000000      90.00000000     360.00000000      36.97480320       1.28756484
      21.60000000      90.00000000     360.00000000      36.97504512       1.28757327
      21.70000000      90.00000000     360.00000000      36.97528702       1.28758169
      21.80000000      90.00000000     360.00000000      36.97552891       1.28759012
      21.90000000      90.00000000     360.00000000      36.97577078       1.28759854
      22.00000000      90.00000000     360.00000000      36.97601263       1.28760696
      22.10000000      90.00000000     360.00000000      36.97625446       1.28761538
      22.20000000      90.00000000     360.00000000      36.97649628       1.28762380
      22.30000000      90.00000000     360.00000000      36.97673808       1.28763222
      22.40000000      90.00000000     360.00000000      36.97697986       1.28764064
      22.50000000      90.00000000     360.00000000      36.97722162       1.28764906
      22.60000000      90.00000000     360.00000000      36.97746336       1.28765748
      22.70000000      90.00000000     360.00000000      36.97770509       1.28766590
      22.80000000      90.00000000     360.00000000      36.97794680       1.28767431
      22.90000000      90.00000000     360.00000000      36.97818850       1.28768273
      23.00000000      90.00000000     360.00000000      36.97843017       1.28769115
      23.10000000      90.00000000     360.00000000      36.97867183       1.28769956
      23.20000000      90.00000000     360.00000000      36.97891347       1.28770798
      23.30000000      90.00000000     360.00000000      36.97915510       1.28771639
      23.40000000      90.00000000     360.00000000      36.97939670       1.28772480
      23.50000000      90.00000000     360.00000000      36.97963829       1.28773322
      23.60000000      90.00000000     360.00000000      36.97987986       1.28774163
      23.70000000      90.00000000     360.00000000      36.98012142       1.28775004
      23.80000000      90.00000000     360.00000000      36.98036295       1.28775845
      23.90000000      90.00000000     360.00000000      36.98060447       1.28776686
      24.00000000      90.00000000     360.00000000      36.98084597       1.28777527
      24.10000000      90.00000000     360.00000000      36.98108746       1.28778368
      24.20000000      90.00000000     360.00000000      36.98132893       1.28779209
      24.30000000      90.00000000     360.00000000      36.98157038       1.28780050
      24.40000000      90.00000000     360.00000000      36.98181181       1.28780890
      24.50000000      90.00000000     360.00000000      36.98205322       1.28781731
      24.60000000      90.00000000     360.00000000      36.98229462       1.28782572
      24.70000000      90.00000000     360.00000000      36.98253600       1.28783412
      24.80000000      90.00000000     360.00000000      36.98277737       1.28784253
      24.90000000      90.00000000     360.00000000      36.98301871       1.28785093
      25.00000000      90.00000000     360.00000000      36.98326004       1.28785934
      25.10000000      90.00000000     360.00000000      36.98350135       1.28786774
      25.20000000      90.00000000     360.00000000      36.98374265       1.28787614
      25.30000000      90.00000000     360.00000000      36.98398393       1.28788454
      25.40000000      90.00000000     360.00000000      36.98422519       1.28789294
      25.50000000      90.00000000     360.00000000      36.98446643       1.28790135
      25.60000000      90.00000000     360.00000000      36.98470765       1.28790975
      25.70000000      90.00000000     360.00000000      36.98494886       1.28791814
      25.80000000      90.00000000     360.00000000      36.98519005       1.28792654
      25.90000000      90.00000000     360.00000000      36.98543123       1.28793494
      26.00000000      90.00000000     360.00000000      36.98567239       1.28794334
      26.10000000      90.00000000     360.00000000      36.98591353       1.28795174
      26.20000000      90.00000000     360.00000000      36.98615465       1.28796013
      26.30000000      90.00000000     360.00000000      36.98639575       1.28796853
      26.40000000      90.00000000     360.00000000      36.98663684       1.28797692
      26.50000000      90.00000000     360.00000000      36.98687792       1.28798532
      26.60000000      90.00000000     360.00000000      36.98711897       1.28799371
      26.70000000      90.00000000     360.00000000      36.98736001       1.28800211
      26.80000000      90.00000000     360.00000000      36.98760103       1.28801050
      26.90000000      90.00000000     360.00000000      36.98784203       1.28801889
      27.00000000      90.00000000     360.00000000      36.98808302       1.28802728
      27.10000000      90.00000000     360.00000000      36.98832399       1.28803568
      27.20000000      90.00000000     360.00000000      36.98856494       1.28804407
      27.30000000      90.00000000     360.00000000      36.98880587       1.28805246
      27.40000000      90.00000000     360.00000000      36.98904679       1.28806085
      27.50000000      90.00000000     360.00000000      36.98928769       1.28806923
      27.60000000      90.00000000     360.00000000      36.98952858       1.28807762
      27.70000000      90.00000000     360.00000000      36.98976944       1.28808601
      27.80000000      90.00000000     360.00000000      36.99001029       1.28809440
      27.90000000      90.00000000     360.00000000      36.99025113       1.28810278
      28.00000000      90.00000000     360.00000000      36.99049194       1.28811117
      28.10000000      90.00000000     360.00000000      36.99073274       1.28811956
      28.20000000      90.00000000     360.00000000      36.99097353       1.28812794
      28.30000000      90.00000000     360.00000000      36.99121429       1.28813632
      28.40000000      90.00000000     360.00000000      36.99145504       1.28814471
      28.50000000      90.00000000     360.00000000      36.99169577       1.28815309
      28.60000000      90.00000000     360.00000000      36.99193649       1.28816147
      28.70000000      90.00000000     360.00000000      36.99217719       1.28816985
      28.80000000      90.00000000     360.00000000      36.99241787       1.28817824
      28.90000000      90.00000000     360.00000000      36.99265853       1.28818662
      29.00000000      90.00000000     360.00000000      36.99289918       1.28819500
      29.10000000      90.00000000     360.00000000      36.99313981       1.28820338
      29.20000000      90.00000000     360.00000000      36.99338042       1.28821175
      29.30000000      90.00000000     360.00000000      36.99362102       1.28822013
      29.40000000      90.00000000     360.00000000      36.99386160       1.28822851
      29.50000000      90.00000000     360.00000000      36.99410216       1.28823689
      29.60000000      90.00000000     360.00000000      36.99434271       1.28824526
      29.70000000      90.00000000     360.00000000      36.99458324       1.28825364
      29.80000000      90.00000000     360.00000000      36.99482375       1.28826202
      29.90000000      90.00000000     360.00000000      36.99506425       1.28827039
      30.00000000      90.00000000     360.00000000      36.99530473       1.28827876
      30.10000000      90.00000000     360.00000000      36.99554519       1.28828714
      30.20000000      90.00000000     360.00000000      36.99578564       1.28829551
      30.30000000      90.00000000     360.00000000      36.99602607       1.28830388
      30.40000000      90.00000000     360.00000000      36.99626648       1.28831226
      30.50000000      90.00000000     360.00000000      36.99650687       1.28832063
      30.60000000      90.00000000     360.00000000      36.99674725       1.28832900
      30.70000000      90.00000000     360.00000000      36.99698762       1.28833737
      30.80000000      90.00000000     360.00000000      36.99722796       1.28834574
      30.90000000      90.00000000     360.00000000      36.99746829       1.28835411
      31.00000000      90.00000000     360.00000000      36.99770860       1.28836247
      31.10000000      90.00000000     360.00000000      36.99794890       1.28837084
      31.20000000      90.00000000     360.00000000      36.99818918       1.28837921
      31.30000000      90.00000000     360.00000000      36.99842944       1.28838758
      31.40000000      90.00000000     360.00000000      36.99866969       1.28839594
      31.50000000      90.00000000     360.00000000      36.99890992       1.28840431
      31.60000000      90.00000000     360.00000000      36.99915013       1.28841267
      31.70000000      90.00000000     360.00000000      36.99939033       1.28842104
      31.80000000      90.00000000     360.00000000      36.99963050       1.28842940
      31.90000000      90.00000000     360.00000000      36.99987067       1.28843776
      32.00000000      90.00000000     360.00000000      37.00011081       1.28844613
      32.10000000      90.00000000     360.00000000      37.00035094       1.28845449
      32.20000000      90.00000000     360.00000000      37.00059106       1.28846285
      32.30000000      90.00000000     360.00000000      37.00083115       1.28847121
      32.40000000      90.00000000     360.00000000      37.00107124       1.28847957
      32.50000000      90.00000000     360.00000000      37.00131130       1.28848793
      32.60000000      90.00000000     360.00000000      37.00155135       1.28849629
      32.70000000      90.00000000     360.00000000      37.00179138       1.28850465
      32.80000000      90.00000000     360.00000000      37.00203139       1.28851301
      32.90000000      90.00000000     360.00000000      37.00227139       1.28852136
      33.00000000      90.00000000     360.00000000      37.00251137       1.28852972
      33.10000000      90.00000000     360.00000000      37.00275134       1.28853808
      33.20000000      90.00000000     360.00000000      37.00299129       1.28854643
      33.30000000      90.00000000     360.00000000      37.00323122       1.28855479
      33.40000000      90.00000000     360.00000000      37.00347113       1.28856314
      33.50000000      90.00000000     360.00000000      37.00371103       1.28857150
      33.60000000      90.00000000     360.00000000      37.00395092       1.28857985
      33.70000000      90.00000000     360.00000000      37.00419078       1.28858820
      33.80000000      90.00000000     360.00000000      37.00443063       1.28859655
      33.90000000      90.00000000     360.00000000      37.00467047       1.28860491
      34.00000000      90.00000000     360.00000000      37.00491028       1.28861326
      34.10000000      90.00000000     360.00000000      37.00515009       1.28862161
      34.20000000      90.00000000     360.00000000      37.00538987       1.28862996
      34.30000000      90.00000000     360.00000000      37.00562964       1.28863831
      34.40000000      90.00000000     360.00000000      37.00586939       1.28864666
      34.50000000      90.00000000     360.00000000      37.00610913       1.28865500
      34.60000000      90.00000000     360.00000000      37.00634885       1.28866335
      34.70000000      90.00000000     360.00000000      37.00658855       1.28867170
      34.80000000      90.00000000     360.00000000      37.00682824       1.28868004
      34.90000000      90.00000000     360.00000000      37.00706791       1.28868839
      35.00000000      90.00000000     360.00000000      37.00730756       1.28869674
      35.10000000      90.00000000     360.00000000      37.00754720       1.28870508
      35.20000000      90.00000000     360.00000000      37.00778682       1.28871343
      35.30000000      90.00000000     360.00000000      37.00802643       1.28872177
      35.40000000      90.00000000     360.00000000      37.00826602       1.28873011
      35.50000000      90.00000000     360.00000000      37.00850559       1.28873846
      35.60000000      90.00000000     360.00000000      37.00874515       1.28874680
      35.70000000      90.00000000     360.00000000      37.00898469       1.28875514
      35.80000000      90.00000000     360.00000000      37.00922421       1.28876348
      35.90000000      90.00000000     360.00000000      37.00946372       1.28877182
      36.00000000      90.00000000     360.00000000      37.00970322       1.28878016
      36.10000000      90.00000000     360.00000000      37.00994269       1.28878850
      36.20000000      90.00000000     360.00000000      37.01018215       1.28879684
      36.30000000      90.00000000     360.00000000      37.01042160       1.28880518
      36.40000000      90.00000000     360.00000000      37.01066102       1.28881351
      36.50000000      90.00000000     360.00000000      37.01090044       1.28882185
      36.60000000      90.00000000     360.00000000      37.01113983       1.28883019
      36.70000000      90.00000000     360.00000000      37.01137921       1.28883852
      36.80000000      90.00000000     360.00000000      37.01161858       1.28884686
      36.90000000      90.00000000     360.00000000      37.01185792       1.28885519
      37.00000000      90.00000000     360.00000000      37.01209725       1.28886353
      37.10000000      90.00000000     360.00000000      37.01233657       1.28887186
      37.20000000      90.00000000     360.00000000      37.01257587       1.28888019
      37.30000000      90.00000000     360.00000000      37.01281515       1.28888853
      37.40000000      90.00000000     360.00000000      37.01305442       1.28889686
      37.50000000      90.00000000     360.00000000      37.01329367       1.28890519
      37.60000000      90.00000000     360.00000000      37.01353291       1.28891352
      37.70000000      90.00000000     360.00000000      37.01377213       1.28892185
      37.80000000      90.00000000     360.00000000      37.01401133       1.28893018
      37.90000000      90.00000000     360.00000000      37.01425052       1.28893851
      38.00000000      90.00000000     360.00000000      37.01448969       1.28894684
      38.10000000      90.00000000     360.00000000      37.01472884       1.28895517
      38.20000000      90.00000000     360.00000000      37.01496798       1.28896349
      38.30000000      90.00000000     360.00000000      37.01520711       1.28897182
      38.40000000      90.00000000     360.00000000      37.01544621       1.28898015
      38.50000000      90.00000000     360.00000000      37.01568531       1.28898847
      38.60000000      90.00000000     360.00000000      37.01592438       1.28899680
      38.70000000      90.00000000     360.00000000      37.01616344       1.28900512
      38.80000000      90.00000000     360.00000000      37.01640249       1.28901345
      38.90000000      90.00000000     360.00000000      37.01664151       1.28902177
      39.00000000      90.00000000     360.00000000      37.01688053       1.28903009
      39.10000000      90.00000000     360.00000000      37.01711952       1.28903842
      39.20000000      90.00000000     360.00000000      37.01735850       1.28904674
      39.30000000      90.00000000     360.00000000      37.01759747       1.28905506
      39.40000000      90.00000000     360.00000000      37.01783642       1.28906338
      39.50000000      90.00000000     360.00000000      37.01807535       1.28907170
      39.60000000      90.00000000     360.00000000      37.01831427       1.28908002
      39.70000000      90.00000000     360.00000000      37.01855317       1.28908834
      39.80000000      90.00000000     360.00000000      37.01879206       1.28909666
      39.90000000      90.00000000     360.00000000      37.01903093       1.28910498
      40.00000000      90.00000000     360.00000000      37.01926978       1.28911329
