 # applied field (T), theta (degree), phi (degree), abs for RE 3-4
     0.00000     0.00000     0.00000     3.73893     0.00000     0.00000     3.73893
     0.10000     0.30154   360.00000     3.73889     0.34612   360.00000     3.73891
     0.20000     0.60307   360.00000     3.73877     0.69225   360.00000     3.73888
     0.30000     0.90463   360.00000     3.73858     1.03839   360.00000     3.73883
     0.40000     1.24895   360.00000     3.73828     1.43360   360.00000     3.73874
     0.50000     1.55059   360.00000     3.73792     1.77979   360.00000     3.73864
     0.60000     1.85229   360.00000     3.73750     2.12603   360.00000     3.73851
     0.70000     2.15406   360.00000     3.73699     2.47231   360.00000     3.73837
     0.80000     2.45591   360.00000     3.73642     2.81864   360.00000     3.73820
     0.90000     2.75785   360.00000     3.73576     3.16504   360.00000     3.73802
