 # applied field (T), theta (degree), phi (degree), abs [muB/unitcell], abs [T]
       0.00000000      90.00000000      45.42820174      51.45831839       1.79192088
       0.10000000      90.00000000      42.00214669      51.45837848       1.79192297
       0.20000000      90.00000000      39.43245724      51.45847504       1.79192633
       0.30000000      90.00000000      36.00616063      51.45864347       1.79193220
       0.40000000      90.00000000      33.43613476      51.45881653       1.79193822
       0.50000000      90.00000000      30.86587716      51.45901714       1.79194521
       0.60000000      90.00000000      28.29534431      51.45924079       1.79195300
       0.70000000      90.00000000      25.72450223      51.45948223       1.79196140
       0.80000000      90.00000000      23.15332776      51.45973550       1.79197022
       0.90000000      90.00000000      20.58180961      51.45999411       1.79197923
       1.00000000      90.00000000      17.15265157      51.46031858       1.79199053
       1.10000000      90.00000000      13.72290001      51.46062305       1.79200113
       1.20000000      90.00000000       9.43502340      51.46093845       1.79201211
       1.30000000      90.00000000     360.00000000      51.46125036       1.79202298
       1.40000000      90.00000000     360.00000000      51.46130221       1.79202478
       1.50000000      90.00000000     360.00000000      51.46135407       1.79202659
       1.60000000      90.00000000     360.00000000      51.46140593       1.79202839
       1.70000000      90.00000000     360.00000000      51.46145778       1.79203020
       1.80000000      90.00000000     360.00000000      51.46150965       1.79203200
       1.90000000      90.00000000     360.00000000      51.46156151       1.79203381
       2.00000000      90.00000000     360.00000000      51.46161338       1.79203562
       2.10000000      90.00000000     360.00000000      51.46166525       1.79203742
       2.20000000      90.00000000     360.00000000      51.46171712       1.79203923
       2.30000000      90.00000000     360.00000000      51.46176899       1.79204104
       2.40000000      90.00000000     360.00000000      51.46182087       1.79204284
       2.50000000      90.00000000     360.00000000      51.46187275       1.79204465
       2.60000000      90.00000000     360.00000000      51.46192463       1.79204646
       2.70000000      90.00000000     360.00000000      51.46197652       1.79204826
       2.80000000      90.00000000     360.00000000      51.46202841       1.79205007
       2.90000000      90.00000000     360.00000000      51.46208030       1.79205188
       3.00000000      90.00000000     360.00000000      51.46213219       1.79205368
       3.10000000      90.00000000     360.00000000      51.46218409       1.79205549
       3.20000000      90.00000000     360.00000000      51.46223599       1.79205730
       3.30000000      90.00000000     360.00000000      51.46228789       1.79205910
       3.40000000      90.00000000     360.00000000      51.46233979       1.79206091
       3.50000000      90.00000000     360.00000000      51.46239170       1.79206272
       3.60000000      90.00000000     360.00000000      51.46244361       1.79206453
       3.70000000      90.00000000     360.00000000      51.46249552       1.79206633
       3.80000000      90.00000000     360.00000000      51.46254743       1.79206814
       3.90000000      90.00000000     360.00000000      51.46259935       1.79206995
       4.00000000      90.00000000     360.00000000      51.46265127       1.79207176
       4.10000000      90.00000000     360.00000000      51.46270319       1.79207357
       4.20000000      90.00000000     360.00000000      51.46275512       1.79207537
       4.30000000      90.00000000     360.00000000      51.46280705       1.79207718
       4.40000000      90.00000000     360.00000000      51.46285898       1.79207899
       4.50000000      90.00000000     360.00000000      51.46291091       1.79208080
       4.60000000      90.00000000     360.00000000      51.46296285       1.79208261
       4.70000000      90.00000000     360.00000000      51.46301478       1.79208442
       4.80000000      90.00000000     360.00000000      51.46306672       1.79208623
       4.90000000      90.00000000     360.00000000      51.46311867       1.79208803
       5.00000000      90.00000000     360.00000000      51.46317062       1.79208984
       5.10000000      90.00000000     360.00000000      51.46322256       1.79209165
       5.20000000      90.00000000     360.00000000      51.46327452       1.79209346
       5.30000000      90.00000000     360.00000000      51.46332647       1.79209527
       5.40000000      90.00000000     360.00000000      51.46337843       1.79209708
       5.50000000      90.00000000     360.00000000      51.46343039       1.79209889
       5.60000000      90.00000000     360.00000000      51.46348235       1.79210070
       5.70000000      90.00000000     360.00000000      51.46353432       1.79210251
       5.80000000      90.00000000     360.00000000      51.46358628       1.79210432
       5.90000000      90.00000000     360.00000000      51.46363826       1.79210613
       6.00000000      90.00000000     360.00000000      51.46369023       1.79210794
       6.10000000      90.00000000     360.00000000      51.46374221       1.79210975
       6.20000000      90.00000000     360.00000000      51.46379418       1.79211156
       6.30000000      90.00000000     360.00000000      51.46384617       1.79211337
       6.40000000      90.00000000     360.00000000      51.46389815       1.79211518
       6.50000000      90.00000000     360.00000000      51.46395014       1.79211699
       6.60000000      90.00000000     360.00000000      51.46400213       1.79211880
       6.70000000      90.00000000     360.00000000      51.46405412       1.79212061
       6.80000000      90.00000000     360.00000000      51.46410611       1.79212242
       6.90000000      90.00000000     360.00000000      51.46415811       1.79212423
       7.00000000      90.00000000     360.00000000      51.46421011       1.79212604
       7.10000000      90.00000000     360.00000000      51.46426212       1.79212785
       7.20000000      90.00000000     360.00000000      51.46431412       1.79212966
       7.30000000      90.00000000     360.00000000      51.46436613       1.79213147
       7.40000000      90.00000000     360.00000000      51.46441814       1.79213329
       7.50000000      90.00000000     360.00000000      51.46447016       1.79213510
       7.60000000      90.00000000     360.00000000      51.46452218       1.79213691
       7.70000000      90.00000000     360.00000000      51.46457420       1.79213872
       7.80000000      90.00000000     360.00000000      51.46462622       1.79214053
       7.90000000      90.00000000     360.00000000      51.46467824       1.79214234
       8.00000000      90.00000000     360.00000000      51.46473027       1.79214416
       8.10000000      90.00000000     360.00000000      51.46478230       1.79214597
       8.20000000      90.00000000     360.00000000      51.46483434       1.79214778
       8.30000000      90.00000000     360.00000000      51.46488637       1.79214959
       8.40000000      90.00000000     360.00000000      51.46493841       1.79215140
       8.50000000      90.00000000     360.00000000      51.46499046       1.79215322
       8.60000000      90.00000000     360.00000000      51.46504250       1.79215503
       8.70000000      90.00000000     360.00000000      51.46509455       1.79215684
       8.80000000      90.00000000     360.00000000      51.46514660       1.79215865
       8.90000000      90.00000000     360.00000000      51.46519865       1.79216047
       9.00000000      90.00000000     360.00000000      51.46525071       1.79216228
       9.10000000      90.00000000     360.00000000      51.46530277       1.79216409
       9.20000000      90.00000000     360.00000000      51.46535483       1.79216590
       9.30000000      90.00000000     360.00000000      51.46540689       1.79216772
       9.40000000      90.00000000     360.00000000      51.46545896       1.79216953
       9.50000000      90.00000000     360.00000000      51.46551103       1.79217134
       9.60000000      90.00000000     360.00000000      51.46556310       1.79217316
       9.70000000      90.00000000     360.00000000      51.46561518       1.79217497
       9.80000000      90.00000000     360.00000000      51.46566726       1.79217678
       9.90000000      90.00000000     360.00000000      51.46571934       1.79217860
      10.00000000      90.00000000     360.00000000      51.46577142       1.79218041
      10.10000000      90.00000000     360.00000000      51.46582351       1.79218222
      10.20000000      90.00000000     360.00000000      51.46587560       1.79218404
      10.30000000      90.00000000     360.00000000      51.46592769       1.79218585
      10.40000000      90.00000000     360.00000000      51.46597978       1.79218767
      10.50000000      90.00000000     360.00000000      51.46603188       1.79218948
      10.60000000      90.00000000     360.00000000      51.46608398       1.79219130
      10.70000000      90.00000000     360.00000000      51.46613609       1.79219311
      10.80000000      90.00000000     360.00000000      51.46618819       1.79219492
      10.90000000      90.00000000     360.00000000      51.46624030       1.79219674
      11.00000000      90.00000000     360.00000000      51.46629242       1.79219855
      11.10000000      90.00000000     360.00000000      51.46634453       1.79220037
      11.20000000      90.00000000     360.00000000      51.46639665       1.79220218
      11.30000000      90.00000000     360.00000000      51.46644877       1.79220400
      11.40000000      90.00000000     360.00000000      51.46650089       1.79220581
      11.50000000      90.00000000     360.00000000      51.46655302       1.79220763
      11.60000000      90.00000000     360.00000000      51.46660515       1.79220944
      11.70000000      90.00000000     360.00000000      51.46665728       1.79221126
      11.80000000      90.00000000     360.00000000      51.46670941       1.79221307
      11.90000000      90.00000000     360.00000000      51.46676155       1.79221489
      12.00000000      90.00000000     360.00000000      51.46681369       1.79221671
      12.10000000      90.00000000     360.00000000      51.46686584       1.79221852
      12.20000000      90.00000000     360.00000000      51.46691798       1.79222034
      12.30000000      90.00000000     360.00000000      51.46697013       1.79222215
      12.40000000      90.00000000     360.00000000      51.46702228       1.79222397
      12.50000000      90.00000000     360.00000000      51.46707444       1.79222579
      12.60000000      90.00000000     360.00000000      51.46712660       1.79222760
      12.70000000      90.00000000     360.00000000      51.46717876       1.79222942
      12.80000000      90.00000000     360.00000000      51.46723092       1.79223123
      12.90000000      90.00000000     360.00000000      51.46728309       1.79223305
      13.00000000      90.00000000     360.00000000      51.46733526       1.79223487
      13.10000000      90.00000000     360.00000000      51.46738743       1.79223668
      13.20000000      90.00000000     360.00000000      51.46743960       1.79223850
      13.30000000      90.00000000     360.00000000      51.46749178       1.79224032
      13.40000000      90.00000000     360.00000000      51.46754396       1.79224214
      13.50000000      90.00000000     360.00000000      51.46759615       1.79224395
      13.60000000      90.00000000     360.00000000      51.46764833       1.79224577
      13.70000000      90.00000000     360.00000000      51.46770052       1.79224759
      13.80000000      90.00000000     360.00000000      51.46775272       1.79224940
      13.90000000      90.00000000     360.00000000      51.46780491       1.79225122
      14.00000000      90.00000000     360.00000000      51.46785711       1.79225304
      14.10000000      90.00000000     360.00000000      51.46790931       1.79225486
      14.20000000      90.00000000     360.00000000      51.46796151       1.79225668
      14.30000000      90.00000000     360.00000000      51.46801372       1.79225849
      14.40000000      90.00000000     360.00000000      51.46806593       1.79226031
      14.50000000      90.00000000     360.00000000      51.46811814       1.79226213
      14.60000000      90.00000000     360.00000000      51.46817036       1.79226395
      14.70000000      90.00000000     360.00000000      51.46822258       1.79226577
      14.80000000      90.00000000     360.00000000      51.46827480       1.79226759
      14.90000000      90.00000000     360.00000000      51.46832702       1.79226940
      15.00000000      90.00000000     360.00000000      51.46837925       1.79227122
      15.10000000      90.00000000     360.00000000      51.46843148       1.79227304
      15.20000000      90.00000000     360.00000000      51.46848371       1.79227486
      15.30000000      90.00000000     360.00000000      51.46853595       1.79227668
      15.40000000      90.00000000     360.00000000      51.46858819       1.79227850
      15.50000000      90.00000000     360.00000000      51.46864043       1.79228032
      15.60000000      90.00000000     360.00000000      51.46869268       1.79228214
      15.70000000      90.00000000     360.00000000      51.46874493       1.79228396
      15.80000000      90.00000000     360.00000000      51.46879718       1.79228578
      15.90000000      90.00000000     360.00000000      51.46884943       1.79228760
      16.00000000      90.00000000     360.00000000      51.46890169       1.79228942
      16.10000000      90.00000000     360.00000000      51.46895395       1.79229124
      16.20000000      90.00000000     360.00000000      51.46900621       1.79229306
      16.30000000      90.00000000     360.00000000      51.46905847       1.79229488
      16.40000000      90.00000000     360.00000000      51.46911074       1.79229670
      16.50000000      90.00000000     360.00000000      51.46916301       1.79229852
      16.60000000      90.00000000     360.00000000      51.46921529       1.79230034
      16.70000000      90.00000000     360.00000000      51.46926757       1.79230216
      16.80000000      90.00000000     360.00000000      51.46931985       1.79230398
      16.90000000      90.00000000     360.00000000      51.46937213       1.79230580
      17.00000000      90.00000000     360.00000000      51.46942442       1.79230762
      17.10000000      90.00000000     360.00000000      51.46947671       1.79230944
      17.20000000      90.00000000     360.00000000      51.46952900       1.79231126
      17.30000000      90.00000000     360.00000000      51.46958129       1.79231308
      17.40000000      90.00000000     360.00000000      51.46963359       1.79231490
      17.50000000      90.00000000     360.00000000      51.46968589       1.79231672
      17.60000000      90.00000000     360.00000000      51.46973820       1.79231854
      17.70000000      90.00000000     360.00000000      51.46979051       1.79232037
      17.80000000      90.00000000     360.00000000      51.46984282       1.79232219
      17.90000000      90.00000000     360.00000000      51.46989513       1.79232401
      18.00000000      90.00000000     360.00000000      51.46994745       1.79232583
      18.10000000      90.00000000     360.00000000      51.46999977       1.79232765
      18.20000000      90.00000000     360.00000000      51.47005209       1.79232948
      18.30000000      90.00000000     360.00000000      51.47010441       1.79233130
      18.40000000      90.00000000     360.00000000      51.47015674       1.79233312
      18.50000000      90.00000000     360.00000000      51.47020907       1.79233494
      18.60000000      90.00000000     360.00000000      51.47026141       1.79233676
      18.70000000      90.00000000     360.00000000      51.47031374       1.79233859
      18.80000000      90.00000000     360.00000000      51.47036608       1.79234041
      18.90000000      90.00000000     360.00000000      51.47041843       1.79234223
      19.00000000      90.00000000     360.00000000      51.47047077       1.79234406
      19.10000000      90.00000000     360.00000000      51.47052312       1.79234588
      19.20000000      90.00000000     360.00000000      51.47057548       1.79234770
      19.30000000      90.00000000     360.00000000      51.47062783       1.79234952
      19.40000000      90.00000000     360.00000000      51.47068019       1.79235135
      19.50000000      90.00000000     360.00000000      51.47073255       1.79235317
      19.60000000      90.00000000     360.00000000      51.47078492       1.79235499
      19.70000000      90.00000000     360.00000000      51.47083728       1.79235682
      19.80000000      90.00000000     360.00000000      51.47088965       1.79235864
      19.90000000      90.00000000     360.00000000      51.47094203       1.79236047
      20.00000000      90.00000000     360.00000000      51.47099440       1.79236229
      20.10000000      90.00000000     360.00000000      51.47104678       1.79236411
      20.20000000      90.00000000     360.00000000      51.47109917       1.79236594
      20.30000000      90.00000000     360.00000000      51.47115155       1.79236776
      20.40000000      90.00000000     360.00000000      51.47120394       1.79236959
      20.50000000      90.00000000     360.00000000      51.47125633       1.79237141
      20.60000000      90.00000000     360.00000000      51.47130873       1.79237324
      20.70000000      90.00000000     360.00000000      51.47136113       1.79237506
      20.80000000      90.00000000     360.00000000      51.47141353       1.79237688
      20.90000000      90.00000000     360.00000000      51.47146593       1.79237871
      21.00000000      90.00000000     360.00000000      51.47151834       1.79238053
      21.10000000      90.00000000     360.00000000      51.47157075       1.79238236
      21.20000000      90.00000000     360.00000000      51.47162316       1.79238418
      21.30000000      90.00000000     360.00000000      51.47167558       1.79238601
      21.40000000      90.00000000     360.00000000      51.47172800       1.79238784
      21.50000000      90.00000000     360.00000000      51.47178042       1.79238966
      21.60000000      90.00000000     360.00000000      51.47183285       1.79239149
      21.70000000      90.00000000     360.00000000      51.47188528       1.79239331
      21.80000000      90.00000000     360.00000000      51.47193771       1.79239514
      21.90000000      90.00000000     360.00000000      51.47199014       1.79239696
      22.00000000      90.00000000     360.00000000      51.47204258       1.79239879
      22.10000000      90.00000000     360.00000000      51.47209502       1.79240062
      22.20000000      90.00000000     360.00000000      51.47214747       1.79240244
      22.30000000      90.00000000     360.00000000      51.47219992       1.79240427
      22.40000000      90.00000000     360.00000000      51.47225237       1.79240610
      22.50000000      90.00000000     360.00000000      51.47230482       1.79240792
      22.60000000      90.00000000     360.00000000      51.47235728       1.79240975
      22.70000000      90.00000000     360.00000000      51.47240974       1.79241158
      22.80000000      90.00000000     360.00000000      51.47246220       1.79241340
      22.90000000      90.00000000     360.00000000      51.47251467       1.79241523
      23.00000000      90.00000000     360.00000000      51.47256713       1.79241706
      23.10000000      90.00000000     360.00000000      51.47261961       1.79241888
      23.20000000      90.00000000     360.00000000      51.47267208       1.79242071
      23.30000000      90.00000000     360.00000000      51.47272456       1.79242254
      23.40000000      90.00000000     360.00000000      51.47277704       1.79242437
      23.50000000      90.00000000     360.00000000      51.47282953       1.79242619
      23.60000000      90.00000000     360.00000000      51.47288202       1.79242802
      23.70000000      90.00000000     360.00000000      51.47293451       1.79242985
      23.80000000      90.00000000     360.00000000      51.47298700       1.79243168
      23.90000000      90.00000000     360.00000000      51.47303950       1.79243351
      24.00000000      90.00000000     360.00000000      51.47309200       1.79243533
      24.10000000      90.00000000     360.00000000      51.47314450       1.79243716
      24.20000000      90.00000000     360.00000000      51.47319701       1.79243899
      24.30000000      90.00000000     360.00000000      51.47324952       1.79244082
      24.40000000      90.00000000     360.00000000      51.47330203       1.79244265
      24.50000000      90.00000000     360.00000000      51.47335455       1.79244448
      24.60000000      90.00000000     360.00000000      51.47340707       1.79244631
      24.70000000      90.00000000     360.00000000      51.47345959       1.79244813
      24.80000000      90.00000000     360.00000000      51.47351212       1.79244996
      24.90000000      90.00000000     360.00000000      51.47356464       1.79245179
      25.00000000      90.00000000     360.00000000      51.47361718       1.79245362
      25.10000000      90.00000000     360.00000000      51.47366971       1.79245545
      25.20000000      90.00000000     360.00000000      51.47372225       1.79245728
      25.30000000      90.00000000     360.00000000      51.47377479       1.79245911
      25.40000000      90.00000000     360.00000000      51.47382734       1.79246094
      25.50000000      90.00000000     360.00000000      51.47387988       1.79246277
      25.60000000      90.00000000     360.00000000      51.47393243       1.79246460
      25.70000000      90.00000000     360.00000000      51.47398499       1.79246643
      25.80000000      90.00000000     360.00000000      51.47403755       1.79246826
      25.90000000      90.00000000     360.00000000      51.47409011       1.79247009
      26.00000000      90.00000000     360.00000000      51.47414267       1.79247192
      26.10000000      90.00000000     360.00000000      51.47419524       1.79247375
      26.20000000      90.00000000     360.00000000      51.47424781       1.79247558
      26.30000000      90.00000000     360.00000000      51.47430038       1.79247741
      26.40000000      90.00000000     360.00000000      51.47435296       1.79247924
      26.50000000      90.00000000     360.00000000      51.47440554       1.79248107
      26.60000000      90.00000000     360.00000000      51.47445812       1.79248291
      26.70000000      90.00000000     360.00000000      51.47451071       1.79248474
      26.80000000      90.00000000     360.00000000      51.47456330       1.79248657
      26.90000000      90.00000000     360.00000000      51.47461589       1.79248840
      27.00000000      90.00000000     360.00000000      51.47466848       1.79249023
      27.10000000      90.00000000     360.00000000      51.47472108       1.79249206
      27.20000000      90.00000000     360.00000000      51.47477368       1.79249389
      27.30000000      90.00000000     360.00000000      51.47482629       1.79249573
      27.40000000      90.00000000     360.00000000      51.47487890       1.79249756
      27.50000000      90.00000000     360.00000000      51.47493151       1.79249939
      27.60000000      90.00000000     360.00000000      51.47498412       1.79250122
      27.70000000      90.00000000     360.00000000      51.47503674       1.79250305
      27.80000000      90.00000000     360.00000000      51.47508936       1.79250489
      27.90000000      90.00000000     360.00000000      51.47514199       1.79250672
      28.00000000      90.00000000     360.00000000      51.47519462       1.79250855
      28.10000000      90.00000000     360.00000000      51.47524725       1.79251039
      28.20000000      90.00000000     360.00000000      51.47529988       1.79251222
      28.30000000      90.00000000     360.00000000      51.47535252       1.79251405
      28.40000000      90.00000000     360.00000000      51.47540516       1.79251588
      28.50000000      90.00000000     360.00000000      51.47545780       1.79251772
      28.60000000      90.00000000     360.00000000      51.47551045       1.79251955
      28.70000000      90.00000000     360.00000000      51.47556310       1.79252138
      28.80000000      90.00000000     360.00000000      51.47561576       1.79252322
      28.90000000      90.00000000     360.00000000      51.47566841       1.79252505
      29.00000000      90.00000000     360.00000000      51.47572107       1.79252689
      29.10000000      90.00000000     360.00000000      51.47577374       1.79252872
      29.20000000      90.00000000     360.00000000      51.47582640       1.79253055
      29.30000000      90.00000000     360.00000000      51.47587907       1.79253239
      29.40000000      90.00000000     360.00000000      51.47593175       1.79253422
      29.50000000      90.00000000     360.00000000      51.47598442       1.79253606
      29.60000000      90.00000000     360.00000000      51.47603710       1.79253789
      29.70000000      90.00000000     360.00000000      51.47608979       1.79253972
      29.80000000      90.00000000     360.00000000      51.47614247       1.79254156
      29.90000000      90.00000000     360.00000000      51.47619516       1.79254339
      30.00000000      90.00000000     360.00000000      51.47624786       1.79254523
      30.10000000      90.00000000     360.00000000      51.47630055       1.79254706
      30.20000000      90.00000000     360.00000000      51.47635325       1.79254890
      30.30000000      90.00000000     360.00000000      51.47640595       1.79255073
      30.40000000      90.00000000     360.00000000      51.47645866       1.79255257
      30.50000000      90.00000000     360.00000000      51.47651137       1.79255441
      30.60000000      90.00000000     360.00000000      51.47656408       1.79255624
      30.70000000      90.00000000     360.00000000      51.47661680       1.79255808
      30.80000000      90.00000000     360.00000000      51.47666952       1.79255991
      30.90000000      90.00000000     360.00000000      51.47672224       1.79256175
      31.00000000      90.00000000     360.00000000      51.47677497       1.79256358
      31.10000000      90.00000000     360.00000000      51.47682770       1.79256542
      31.20000000      90.00000000     360.00000000      51.47688043       1.79256726
      31.30000000      90.00000000     360.00000000      51.47693316       1.79256909
      31.40000000      90.00000000     360.00000000      51.47698590       1.79257093
      31.50000000      90.00000000     360.00000000      51.47703865       1.79257277
      31.60000000      90.00000000     360.00000000      51.47709139       1.79257460
      31.70000000      90.00000000     360.00000000      51.47714414       1.79257644
      31.80000000      90.00000000     360.00000000      51.47719689       1.79257828
      31.90000000      90.00000000     360.00000000      51.47724965       1.79258011
      32.00000000      90.00000000     360.00000000      51.47730241       1.79258195
      32.10000000      90.00000000     360.00000000      51.47735517       1.79258379
      32.20000000      90.00000000     360.00000000      51.47740793       1.79258563
      32.30000000      90.00000000     360.00000000      51.47746070       1.79258746
      32.40000000      90.00000000     360.00000000      51.47751348       1.79258930
      32.50000000      90.00000000     360.00000000      51.47756625       1.79259114
      32.60000000      90.00000000     360.00000000      51.47761903       1.79259298
      32.70000000      90.00000000     360.00000000      51.47767181       1.79259482
      32.80000000      90.00000000     360.00000000      51.47772460       1.79259665
      32.90000000      90.00000000     360.00000000      51.47777739       1.79259849
      33.00000000      90.00000000     360.00000000      51.47783018       1.79260033
      33.10000000      90.00000000     360.00000000      51.47788298       1.79260217
      33.20000000      90.00000000     360.00000000      51.47793577       1.79260401
      33.30000000      90.00000000     360.00000000      51.47798858       1.79260585
      33.40000000      90.00000000     360.00000000      51.47804138       1.79260768
      33.50000000      90.00000000     360.00000000      51.47809419       1.79260952
      33.60000000      90.00000000     360.00000000      51.47814700       1.79261136
      33.70000000      90.00000000     360.00000000      51.47819982       1.79261320
      33.80000000      90.00000000     360.00000000      51.47825264       1.79261504
      33.90000000      90.00000000     360.00000000      51.47830546       1.79261688
      34.00000000      90.00000000     360.00000000      51.47835829       1.79261872
      34.10000000      90.00000000     360.00000000      51.47841112       1.79262056
      34.20000000      90.00000000     360.00000000      51.47846395       1.79262240
      34.30000000      90.00000000     360.00000000      51.47851678       1.79262424
      34.40000000      90.00000000     360.00000000      51.47856962       1.79262608
      34.50000000      90.00000000     360.00000000      51.47862247       1.79262792
      34.60000000      90.00000000     360.00000000      51.47867531       1.79262976
      34.70000000      90.00000000     360.00000000      51.47872816       1.79263160
      34.80000000      90.00000000     360.00000000      51.47878102       1.79263344
      34.90000000      90.00000000     360.00000000      51.47883387       1.79263528
      35.00000000      90.00000000     360.00000000      51.47888673       1.79263712
      35.10000000      90.00000000     360.00000000      51.47893959       1.79263896
      35.20000000      90.00000000     360.00000000      51.47899246       1.79264080
      35.30000000      90.00000000     360.00000000      51.47904533       1.79264264
      35.40000000      90.00000000     360.00000000      51.47909820       1.79264449
      35.50000000      90.00000000     360.00000000      51.47915108       1.79264633
      35.60000000      90.00000000     360.00000000      51.47920396       1.79264817
      35.70000000      90.00000000     360.00000000      51.47925684       1.79265001
      35.80000000      90.00000000     360.00000000      51.47930973       1.79265185
      35.90000000      90.00000000     360.00000000      51.47936262       1.79265369
      36.00000000      90.00000000     360.00000000      51.47941552       1.79265554
      36.10000000      90.00000000     360.00000000      51.47946841       1.79265738
      36.20000000      90.00000000     360.00000000      51.47952131       1.79265922
      36.30000000      90.00000000     360.00000000      51.47957422       1.79266106
      36.40000000      90.00000000     360.00000000      51.47962712       1.79266290
      36.50000000      90.00000000     360.00000000      51.47968003       1.79266475
      36.60000000      90.00000000     360.00000000      51.47973295       1.79266659
      36.70000000      90.00000000     360.00000000      51.47978587       1.79266843
      36.80000000      90.00000000     360.00000000      51.47983879       1.79267028
      36.90000000      90.00000000     360.00000000      51.47989171       1.79267212
      37.00000000      90.00000000     360.00000000      51.47994464       1.79267396
      37.10000000      90.00000000     360.00000000      51.47999757       1.79267580
      37.20000000      90.00000000     360.00000000      51.48005051       1.79267765
      37.30000000      90.00000000     360.00000000      51.48010344       1.79267949
      37.40000000      90.00000000     360.00000000      51.48015639       1.79268134
      37.50000000      90.00000000     360.00000000      51.48020933       1.79268318
      37.60000000      90.00000000     360.00000000      51.48026228       1.79268502
      37.70000000      90.00000000     360.00000000      51.48031523       1.79268687
      37.80000000      90.00000000     360.00000000      51.48036819       1.79268871
      37.90000000      90.00000000     360.00000000      51.48042115       1.79269055
      38.00000000      90.00000000     360.00000000      51.48047411       1.79269240
      38.10000000      90.00000000     360.00000000      51.48052707       1.79269424
      38.20000000      90.00000000     360.00000000      51.48058004       1.79269609
      38.30000000      90.00000000     360.00000000      51.48063302       1.79269793
      38.40000000      90.00000000     360.00000000      51.48068599       1.79269978
      38.50000000      90.00000000     360.00000000      51.48073897       1.79270162
      38.60000000      90.00000000     360.00000000      51.48079196       1.79270347
      38.70000000      90.00000000     360.00000000      51.48084494       1.79270531
      38.80000000      90.00000000     360.00000000      51.48089793       1.79270716
      38.90000000      90.00000000     360.00000000      51.48095093       1.79270900
      39.00000000      90.00000000     360.00000000      51.48100392       1.79271085
      39.10000000      90.00000000     360.00000000      51.48105692       1.79271269
      39.20000000      90.00000000     360.00000000      51.48110993       1.79271454
      39.30000000      90.00000000     360.00000000      51.48116294       1.79271639
      39.40000000      90.00000000     360.00000000      51.48121595       1.79271823
      39.50000000      90.00000000     360.00000000      51.48126896       1.79272008
      39.60000000      90.00000000     360.00000000      51.48132198       1.79272192
      39.70000000      90.00000000     360.00000000      51.48137500       1.79272377
      39.80000000      90.00000000     360.00000000      51.48142803       1.79272562
      39.90000000      90.00000000     360.00000000      51.48148105       1.79272746
      40.00000000      90.00000000     360.00000000      51.48153409       1.79272931
