 # applied field (T), theta (degree), phi (degree), abs for RE 1-2
     0.00000     0.40003   315.00000     3.45548     0.40003   225.00000     3.45548
     0.10000     1.33162   346.59801     3.45568     0.77372   340.56228     3.45571
     0.20000     2.33187   351.75307     3.45576     1.75812   352.41418     3.45581
     0.30000     3.33973   353.80527     3.45571     2.76439   355.71219     3.45578
     0.40000     4.35012   354.90458     3.45553     3.77586   357.24873     3.45560
     0.50000     5.41501   355.61764     3.45520     4.84326   358.17296     3.45526
     0.60000     6.42789   356.07575     3.45477     5.85946   358.73981     3.45479
     0.70000     7.44176   356.40876     3.45421     6.87744   359.13983     3.45416
     0.80000     8.50996   356.67316     3.45349     7.95072   359.45093     3.45335
     0.90000     9.57940   356.87826     3.45264     9.02598   359.68873     3.45236
     1.00000    10.59677   357.03451     3.45172    10.04954   359.86813     3.45127
     1.10000    11.66898   357.16925     3.45063    11.12890     0.02193     3.44996
     1.20000    12.79640   357.28615     3.44935    12.26451     0.15491     3.44840
     1.30000    13.87206   357.37959     3.44802    13.34858     0.26111     3.44674
     1.40000    15.00340   357.46304     3.44650    14.48936     0.35610     3.44481
     1.50000    16.13695   357.53458     3.44486    15.63294     0.43779     3.44271
     1.60000    17.27286   357.59653     3.44312    16.77945     0.50891     3.44043
     1.70000    18.46539   357.65307     3.44118    17.98367     0.57425     3.43785
     1.80000    19.66079   357.70257     3.43913    19.19131     0.63196     3.43508
     1.90000    20.85918   357.74626     3.43699    20.40251     0.68338     3.43212
     2.00000    22.11523   357.78671     3.43464    21.67253     0.73155     3.42885
     2.10000    23.37479   357.82270     3.43221    22.94666     0.77496     3.42539
     2.20000    24.69285   357.85622     3.42958    24.28055     0.81597     3.42160
     2.30000    26.07000   357.88744     3.42675    25.67490     0.85478     3.41745
     2.40000    27.45161   357.91546     3.42385    27.07447     0.89021     3.41313
     2.50000    28.89317   357.94171     3.42077    28.53557     0.92402     3.40847
     2.60000    30.45096   357.96716     3.41739    30.11541     0.95749     3.40327
     2.70000    32.01452   357.99016     3.41396    31.70217     0.98837     3.39792
     2.80000    33.63992   358.01177     3.41037    33.35289     1.01805     3.39225
     2.90000    35.38405   358.03277     3.40652    35.12567     1.04759     3.38609
     3.00000    37.19167   358.05253     3.40254    36.96468     1.07608     3.37967
     3.10000    39.12008   358.07174     3.39833    38.92860     1.10450     3.37284
     3.20000    41.22754   358.09092     3.39380    41.07733     1.13363     3.36547
     3.30000    43.45869   358.10956     3.38911    43.35500     1.16270     3.35788
     3.40000    45.92971   358.12861     3.38407    45.88080     1.19318     3.34984
     3.50000    48.64312   358.14806     3.37876    48.65795     1.22501     3.34161
     3.60000    51.71746   358.16873     3.37304    51.80811     1.25945     3.33322
     3.70000    55.21481   358.19107     3.36696    55.39459     1.29696     3.32512
     3.80000    59.49139   358.21743     3.36018    59.78047     1.34081     3.31754
     3.90000    65.08706   358.25149     3.35236    65.51129     1.39500     3.31171
     4.00000    73.50324   358.30403     3.34276    74.09310     1.46918     3.31130
     4.10000    89.64046   358.41562     3.33100    90.35954     1.58438     3.33100
     4.20000    89.64047   358.41568     3.33112    90.35953     1.58432     3.33112
     4.30000    89.64048   358.41574     3.33124    90.35952     1.58426     3.33124
     4.40000    89.64050   358.41580     3.33135    90.35950     1.58420     3.33135
     4.50000    89.64051   358.41586     3.33147    90.35949     1.58414     3.33147
     4.60000    89.64052   358.41591     3.33159    90.35948     1.58409     3.33159
     4.70000    89.64054   358.41597     3.33170    90.35946     1.58403     3.33170
     4.80000    89.64055   358.41603     3.33182    90.35945     1.58397     3.33182
     4.90000    89.64056   358.41609     3.33193    90.35944     1.58391     3.33193
     5.00000    89.64057   358.41615     3.33205    90.35943     1.58385     3.33205
     5.10000    89.64059   358.41621     3.33217    90.35941     1.58379     3.33217
     5.20000    89.64060   358.41627     3.33228    90.35940     1.58373     3.33228
     5.30000    89.64061   358.41633     3.33240    90.35939     1.58367     3.33240
     5.40000    89.64063   358.41639     3.33252    90.35937     1.58361     3.33252
     5.50000    89.64064   358.41645     3.33263    90.35936     1.58355     3.33263
     5.60000    89.64065   358.41651     3.33275    90.35935     1.58349     3.33275
     5.70000    89.64066   358.41657     3.33286    90.35934     1.58343     3.33286
     5.80000    89.64068   358.41663     3.33298    90.35932     1.58337     3.33298
     5.90000    89.64069   358.41669     3.33309    90.35931     1.58331     3.33309
     6.00000    89.64070   358.41675     3.33321    90.35930     1.58325     3.33321
     6.10000    89.64072   358.41681     3.33333    90.35928     1.58319     3.33333
     6.20000    89.64073   358.41687     3.33344    90.35927     1.58313     3.33344
     6.30000    89.64074   358.41693     3.33356    90.35926     1.58307     3.33356
     6.40000    89.64075   358.41699     3.33367    90.35925     1.58301     3.33367
     6.50000    89.64077   358.41705     3.33379    90.35923     1.58295     3.33379
     6.60000    89.64078   358.41711     3.33391    90.35922     1.58289     3.33391
     6.70000    89.64079   358.41716     3.33402    90.35921     1.58284     3.33402
     6.80000    89.64081   358.41722     3.33414    90.35919     1.58278     3.33414
     6.90000    89.64082   358.41728     3.33425    90.35918     1.58272     3.33425
     7.00000    89.64083   358.41734     3.33437    90.35917     1.58266     3.33437
     7.10000    89.64084   358.41740     3.33448    90.35916     1.58260     3.33448
     7.20000    89.64086   358.41746     3.33460    90.35914     1.58254     3.33460
     7.30000    89.64087   358.41752     3.33471    90.35913     1.58248     3.33471
     7.40000    89.64088   358.41758     3.33483    90.35912     1.58242     3.33483
     7.50000    89.64089   358.41764     3.33494    90.35911     1.58236     3.33494
     7.60000    89.64091   358.41770     3.33506    90.35909     1.58230     3.33506
     7.70000    89.64092   358.41776     3.33518    90.35908     1.58224     3.33518
     7.80000    89.64093   358.41782     3.33529    90.35907     1.58218     3.33529
     7.90000    89.64095   358.41788     3.33541    90.35905     1.58212     3.33541
     8.00000    89.64096   358.41794     3.33552    90.35904     1.58206     3.33552
     8.10000    89.64097   358.41800     3.33564    90.35903     1.58200     3.33564
     8.20000    89.64098   358.41806     3.33575    90.35902     1.58194     3.33575
     8.30000    89.64100   358.41811     3.33587    90.35900     1.58189     3.33587
     8.40000    89.64101   358.41817     3.33598    90.35899     1.58183     3.33598
     8.50000    89.64102   358.41823     3.33610    90.35898     1.58177     3.33610
     8.60000    89.64103   358.41829     3.33621    90.35897     1.58171     3.33621
     8.70000    89.64105   358.41835     3.33633    90.35895     1.58165     3.33633
     8.80000    89.64106   358.41841     3.33644    90.35894     1.58159     3.33644
     8.90000    89.64107   358.41847     3.33656    90.35893     1.58153     3.33656
     9.00000    89.64109   358.41853     3.33667    90.35891     1.58147     3.33667
     9.10000    89.64110   358.41859     3.33679    90.35890     1.58141     3.33679
     9.20000    89.64111   358.41865     3.33690    90.35889     1.58135     3.33690
     9.30000    89.64112   358.41871     3.33702    90.35888     1.58129     3.33702
     9.40000    89.64114   358.41877     3.33713    90.35886     1.58123     3.33713
     9.50000    89.64115   358.41882     3.33725    90.35885     1.58118     3.33725
     9.60000    89.64116   358.41888     3.33736    90.35884     1.58112     3.33736
     9.70000    89.64117   358.41894     3.33748    90.35883     1.58106     3.33748
     9.80000    89.64119   358.41900     3.33759    90.35881     1.58100     3.33759
     9.90000    89.64120   358.41906     3.33771    90.35880     1.58094     3.33771
    10.00000    89.64121   358.41912     3.33782    90.35879     1.58088     3.33782
    10.10000    89.64123   358.41918     3.33793    90.35877     1.58082     3.33793
    10.20000    89.64124   358.41924     3.33805    90.35876     1.58076     3.33805
    10.30000    89.64125   358.41930     3.33816    90.35875     1.58070     3.33816
    10.40000    89.64126   358.41936     3.33828    90.35874     1.58064     3.33828
    10.50000    89.64128   358.41942     3.33839    90.35872     1.58058     3.33839
    10.60000    89.64129   358.41947     3.33851    90.35871     1.58053     3.33851
    10.70000    89.64130   358.41953     3.33862    90.35870     1.58047     3.33862
    10.80000    89.64131   358.41959     3.33874    90.35869     1.58041     3.33874
    10.90000    89.64133   358.41965     3.33885    90.35867     1.58035     3.33885
    11.00000    89.64134   358.41971     3.33896    90.35866     1.58029     3.33896
    11.10000    89.64135   358.41977     3.33908    90.35865     1.58023     3.33908
    11.20000    89.64137   358.41983     3.33919    90.35863     1.58017     3.33919
    11.30000    89.64138   358.41989     3.33931    90.35862     1.58011     3.33931
    11.40000    89.64139   358.41995     3.33942    90.35861     1.58005     3.33942
    11.50000    89.64140   358.42001     3.33954    90.35860     1.57999     3.33954
    11.60000    89.64142   358.42006     3.33965    90.35858     1.57994     3.33965
    11.70000    89.64143   358.42012     3.33976    90.35857     1.57988     3.33976
    11.80000    89.64144   358.42018     3.33988    90.35856     1.57982     3.33988
    11.90000    89.64145   358.42024     3.33999    90.35855     1.57976     3.33999
    12.00000    89.64147   358.42030     3.34011    90.35853     1.57970     3.34011
    12.10000    89.64148   358.42036     3.34022    90.35852     1.57964     3.34022
    12.20000    89.64149   358.42042     3.34033    90.35851     1.57958     3.34033
    12.30000    89.64151   358.42048     3.34045    90.35849     1.57952     3.34045
    12.40000    89.64152   358.42054     3.34056    90.35848     1.57946     3.34056
    12.50000    89.64153   358.42059     3.34068    90.35847     1.57941     3.34068
    12.60000    89.64154   358.42065     3.34079    90.35846     1.57935     3.34079
    12.70000    89.64156   358.42071     3.34090    90.35844     1.57929     3.34090
    12.80000    89.64157   358.42077     3.34102    90.35843     1.57923     3.34102
    12.90000    89.64158   358.42083     3.34113    90.35842     1.57917     3.34113
    13.00000    89.64159   358.42089     3.34124    90.35841     1.57911     3.34124
    13.10000    89.64161   358.42095     3.34136    90.35839     1.57905     3.34136
    13.20000    89.64162   358.42101     3.34147    90.35838     1.57899     3.34147
    13.30000    89.64163   358.42106     3.34158    90.35837     1.57894     3.34158
    13.40000    89.64164   358.42112     3.34170    90.35836     1.57888     3.34170
    13.50000    89.64166   358.42118     3.34181    90.35834     1.57882     3.34181
    13.60000    89.64167   358.42124     3.34193    90.35833     1.57876     3.34193
    13.70000    89.64168   358.42130     3.34204    90.35832     1.57870     3.34204
    13.80000    89.64169   358.42136     3.34215    90.35831     1.57864     3.34215
    13.90000    89.64171   358.42142     3.34227    90.35829     1.57858     3.34227
    14.00000    89.64172   358.42148     3.34238    90.35828     1.57852     3.34238
    14.10000    89.64173   358.42153     3.34249    90.35827     1.57847     3.34249
    14.20000    89.64175   358.42159     3.34261    90.35825     1.57841     3.34261
    14.30000    89.64176   358.42165     3.34272    90.35824     1.57835     3.34272
    14.40000    89.64177   358.42171     3.34283    90.35823     1.57829     3.34283
    14.50000    89.64178   358.42177     3.34295    90.35822     1.57823     3.34295
    14.60000    89.64180   358.42183     3.34306    90.35820     1.57817     3.34306
    14.70000    89.64181   358.42189     3.34317    90.35819     1.57811     3.34317
    14.80000    89.64182   358.42194     3.34328    90.35818     1.57806     3.34328
    14.90000    89.64183   358.42200     3.34340    90.35817     1.57800     3.34340
    15.00000    89.64185   358.42206     3.34351    90.35815     1.57794     3.34351
    15.10000    89.64186   358.42212     3.34362    90.35814     1.57788     3.34362
    15.20000    89.64187   358.42218     3.34374    90.35813     1.57782     3.34374
    15.30000    89.64188   358.42224     3.34385    90.35812     1.57776     3.34385
    15.40000    89.64190   358.42230     3.34396    90.35810     1.57770     3.34396
    15.50000    89.64191   358.42235     3.34408    90.35809     1.57765     3.34408
    15.60000    89.64192   358.42241     3.34419    90.35808     1.57759     3.34419
    15.70000    89.64193   358.42247     3.34430    90.35807     1.57753     3.34430
    15.80000    89.64195   358.42253     3.34441    90.35805     1.57747     3.34441
    15.90000    89.64196   358.42259     3.34453    90.35804     1.57741     3.34453
    16.00000    89.64197   358.42265     3.34464    90.35803     1.57735     3.34464
    16.10000    89.64199   358.42270     3.34475    90.35801     1.57730     3.34475
    16.20000    89.64200   358.42276     3.34487    90.35800     1.57724     3.34487
    16.30000    89.64201   358.42282     3.34498    90.35799     1.57718     3.34498
    16.40000    89.64202   358.42288     3.34509    90.35798     1.57712     3.34509
    16.50000    89.64204   358.42294     3.34520    90.35796     1.57706     3.34520
    16.60000    89.64205   358.42300     3.34532    90.35795     1.57700     3.34532
    16.70000    89.64206   358.42306     3.34543    90.35794     1.57694     3.34543
    16.80000    89.64207   358.42311     3.34554    90.35793     1.57689     3.34554
    16.90000    89.64209   358.42317     3.34565    90.35791     1.57683     3.34565
    17.00000    89.64210   358.42323     3.34577    90.35790     1.57677     3.34577
    17.10000    89.64211   358.42329     3.34588    90.35789     1.57671     3.34588
    17.20000    89.64212   358.42335     3.34599    90.35788     1.57665     3.34599
    17.30000    89.64214   358.42341     3.34610    90.35786     1.57659     3.34610
    17.40000    89.64215   358.42346     3.34622    90.35785     1.57654     3.34622
    17.50000    89.64216   358.42352     3.34633    90.35784     1.57648     3.34633
    17.60000    89.64217   358.42358     3.34644    90.35783     1.57642     3.34644
    17.70000    89.64219   358.42364     3.34655    90.35781     1.57636     3.34655
    17.80000    89.64220   358.42370     3.34666    90.35780     1.57630     3.34666
    17.90000    89.64221   358.42376     3.34678    90.35779     1.57624     3.34678
    18.00000    89.64222   358.42381     3.34689    90.35778     1.57619     3.34689
    18.10000    89.64224   358.42387     3.34700    90.35776     1.57613     3.34700
    18.20000    89.64225   358.42393     3.34711    90.35775     1.57607     3.34711
    18.30000    89.64226   358.42399     3.34722    90.35774     1.57601     3.34722
    18.40000    89.64227   358.42405     3.34734    90.35773     1.57595     3.34734
    18.50000    89.64229   358.42410     3.34745    90.35771     1.57590     3.34745
    18.60000    89.64230   358.42416     3.34756    90.35770     1.57584     3.34756
    18.70000    89.64231   358.42422     3.34767    90.35769     1.57578     3.34767
    18.80000    89.64232   358.42428     3.34778    90.35768     1.57572     3.34778
    18.90000    89.64234   358.42434     3.34790    90.35766     1.57566     3.34790
    19.00000    89.64235   358.42440     3.34801    90.35765     1.57560     3.34801
    19.10000    89.64236   358.42445     3.34812    90.35764     1.57555     3.34812
    19.20000    89.64237   358.42451     3.34823    90.35763     1.57549     3.34823
    19.30000    89.64239   358.42457     3.34834    90.35761     1.57543     3.34834
    19.40000    89.64240   358.42463     3.34846    90.35760     1.57537     3.34846
    19.50000    89.64241   358.42469     3.34857    90.35759     1.57531     3.34857
    19.60000    89.64242   358.42474     3.34868    90.35758     1.57526     3.34868
    19.70000    89.64244   358.42480     3.34879    90.35756     1.57520     3.34879
    19.80000    89.64245   358.42486     3.34890    90.35755     1.57514     3.34890
    19.90000    89.64246   358.42492     3.34901    90.35754     1.57508     3.34901
    20.00000    89.64247   358.42498     3.34913    90.35753     1.57502     3.34913
    20.10000    89.64249   358.42503     3.34924    90.35751     1.57497     3.34924
    20.20000    89.64250   358.42509     3.34935    90.35750     1.57491     3.34935
    20.30000    89.64251   358.42515     3.34946    90.35749     1.57485     3.34946
    20.40000    89.64252   358.42521     3.34957    90.35748     1.57479     3.34957
    20.50000    89.64254   358.42527     3.34968    90.35746     1.57473     3.34968
    20.60000    89.64255   358.42532     3.34979    90.35745     1.57468     3.34979
    20.70000    89.64256   358.42538     3.34990    90.35744     1.57462     3.34990
    20.80000    89.64257   358.42544     3.35002    90.35743     1.57456     3.35002
    20.90000    89.64259   358.42550     3.35013    90.35741     1.57450     3.35013
    21.00000    89.64260   358.42556     3.35024    90.35740     1.57444     3.35024
    21.10000    89.64261   358.42561     3.35035    90.35739     1.57439     3.35035
    21.20000    89.64262   358.42567     3.35046    90.35738     1.57433     3.35046
    21.30000    89.64264   358.42573     3.35057    90.35736     1.57427     3.35057
    21.40000    89.64265   358.42579     3.35068    90.35735     1.57421     3.35068
    21.50000    89.64266   358.42585     3.35079    90.35734     1.57415     3.35079
    21.60000    89.64267   358.42590     3.35091    90.35733     1.57410     3.35091
    21.70000    89.64269   358.42596     3.35102    90.35731     1.57404     3.35102
    21.80000    89.64270   358.42602     3.35113    90.35730     1.57398     3.35113
    21.90000    89.64271   358.42608     3.35124    90.35729     1.57392     3.35124
    22.00000    89.64272   358.42614     3.35135    90.35728     1.57386     3.35135
    22.10000    89.64274   358.42619     3.35146    90.35726     1.57381     3.35146
    22.20000    89.64275   358.42625     3.35157    90.35725     1.57375     3.35157
    22.30000    89.64276   358.42631     3.35168    90.35724     1.57369     3.35168
    22.40000    89.64277   358.42637     3.35179    90.35723     1.57363     3.35179
    22.50000    89.64279   358.42642     3.35190    90.35721     1.57358     3.35190
    22.60000    89.64280   358.42648     3.35201    90.35720     1.57352     3.35201
    22.70000    89.64281   358.42654     3.35212    90.35719     1.57346     3.35212
    22.80000    89.64282   358.42660     3.35224    90.35718     1.57340     3.35224
    22.90000    89.64284   358.42666     3.35235    90.35716     1.57334     3.35235
    23.00000    89.64285   358.42671     3.35246    90.35715     1.57329     3.35246
    23.10000    89.64286   358.42677     3.35257    90.35714     1.57323     3.35257
    23.20000    89.64287   358.42683     3.35268    90.35713     1.57317     3.35268
    23.30000    89.64289   358.42689     3.35279    90.35711     1.57311     3.35279
    23.40000    89.64290   358.42694     3.35290    90.35710     1.57306     3.35290
    23.50000    89.64291   358.42700     3.35301    90.35709     1.57300     3.35301
    23.60000    89.64292   358.42706     3.35312    90.35708     1.57294     3.35312
    23.70000    89.64294   358.42712     3.35323    90.35706     1.57288     3.35323
    23.80000    89.64295   358.42717     3.35334    90.35705     1.57283     3.35334
    23.90000    89.64296   358.42723     3.35345    90.35704     1.57277     3.35345
    24.00000    89.64297   358.42729     3.35356    90.35703     1.57271     3.35356
    24.10000    89.64299   358.42735     3.35367    90.35701     1.57265     3.35367
    24.20000    89.64300   358.42741     3.35378    90.35700     1.57259     3.35378
    24.30000    89.64301   358.42746     3.35389    90.35699     1.57254     3.35389
    24.40000    89.64302   358.42752     3.35400    90.35698     1.57248     3.35400
    24.50000    89.64304   358.42758     3.35411    90.35696     1.57242     3.35411
    24.60000    89.64305   358.42764     3.35422    90.35695     1.57236     3.35422
    24.70000    89.64306   358.42769     3.35433    90.35694     1.57231     3.35433
    24.80000    89.64307   358.42775     3.35444    90.35693     1.57225     3.35444
    24.90000    89.64308   358.42781     3.35455    90.35692     1.57219     3.35455
    25.00000    89.64310   358.42787     3.35466    90.35690     1.57213     3.35466
    25.10000    89.64311   358.42792     3.35477    90.35689     1.57208     3.35477
    25.20000    89.64312   358.42798     3.35488    90.35688     1.57202     3.35488
    25.30000    89.64313   358.42804     3.35499    90.35687     1.57196     3.35499
    25.40000    89.64315   358.42810     3.35510    90.35685     1.57190     3.35510
    25.50000    89.64316   358.42815     3.35521    90.35684     1.57185     3.35521
    25.60000    89.64317   358.42821     3.35532    90.35683     1.57179     3.35532
    25.70000    89.64318   358.42827     3.35543    90.35682     1.57173     3.35543
    25.80000    89.64320   358.42833     3.35554    90.35680     1.57167     3.35554
    25.90000    89.64321   358.42838     3.35565    90.35679     1.57162     3.35565
    26.00000    89.64322   358.42844     3.35576    90.35678     1.57156     3.35576
    26.10000    89.64323   358.42850     3.35587    90.35677     1.57150     3.35587
    26.20000    89.64325   358.42856     3.35598    90.35675     1.57144     3.35598
    26.30000    89.64326   358.42861     3.35609    90.35674     1.57139     3.35609
    26.40000    89.64327   358.42867     3.35620    90.35673     1.57133     3.35620
    26.50000    89.64328   358.42873     3.35631    90.35672     1.57127     3.35631
    26.60000    89.64330   358.42879     3.35642    90.35670     1.57121     3.35642
    26.70000    89.64331   358.42884     3.35653    90.35669     1.57116     3.35653
    26.80000    89.64332   358.42890     3.35664    90.35668     1.57110     3.35664
    26.90000    89.64333   358.42896     3.35675    90.35667     1.57104     3.35675
    27.00000    89.64334   358.42901     3.35686    90.35666     1.57099     3.35686
    27.10000    89.64336   358.42907     3.35696    90.35664     1.57093     3.35696
    27.20000    89.64337   358.42913     3.35707    90.35663     1.57087     3.35707
    27.30000    89.64338   358.42919     3.35718    90.35662     1.57081     3.35718
    27.40000    89.64339   358.42924     3.35729    90.35661     1.57076     3.35729
    27.50000    89.64341   358.42930     3.35740    90.35659     1.57070     3.35740
    27.60000    89.64342   358.42936     3.35751    90.35658     1.57064     3.35751
    27.70000    89.64343   358.42942     3.35762    90.35657     1.57058     3.35762
    27.80000    89.64344   358.42947     3.35773    90.35656     1.57053     3.35773
    27.90000    89.64346   358.42953     3.35784    90.35654     1.57047     3.35784
    28.00000    89.64347   358.42959     3.35795    90.35653     1.57041     3.35795
    28.10000    89.64348   358.42964     3.35806    90.35652     1.57036     3.35806
    28.20000    89.64349   358.42970     3.35817    90.35651     1.57030     3.35817
    28.30000    89.64351   358.42976     3.35827    90.35649     1.57024     3.35827
    28.40000    89.64352   358.42982     3.35838    90.35648     1.57018     3.35838
    28.50000    89.64353   358.42987     3.35849    90.35647     1.57013     3.35849
    28.60000    89.64354   358.42993     3.35860    90.35646     1.57007     3.35860
    28.70000    89.64355   358.42999     3.35871    90.35645     1.57001     3.35871
    28.80000    89.64357   358.43004     3.35882    90.35643     1.56996     3.35882
    28.90000    89.64358   358.43010     3.35893    90.35642     1.56990     3.35893
    29.00000    89.64359   358.43016     3.35904    90.35641     1.56984     3.35904
    29.10000    89.64360   358.43022     3.35915    90.35640     1.56978     3.35915
    29.20000    89.64362   358.43027     3.35925    90.35638     1.56973     3.35925
    29.30000    89.64363   358.43033     3.35936    90.35637     1.56967     3.35936
    29.40000    89.64364   358.43039     3.35947    90.35636     1.56961     3.35947
    29.50000    89.64365   358.43044     3.35958    90.35635     1.56956     3.35958
    29.60000    89.64367   358.43050     3.35969    90.35633     1.56950     3.35969
    29.70000    89.64368   358.43056     3.35980    90.35632     1.56944     3.35980
    29.80000    89.64369   358.43062     3.35991    90.35631     1.56938     3.35991
    29.90000    89.64370   358.43067     3.36001    90.35630     1.56933     3.36001
    30.00000    89.64371   358.43073     3.36012    90.35629     1.56927     3.36012
    30.10000    89.64373   358.43079     3.36023    90.35627     1.56921     3.36023
    30.20000    89.64374   358.43084     3.36034    90.35626     1.56916     3.36034
    30.30000    89.64375   358.43090     3.36045    90.35625     1.56910     3.36045
    30.40000    89.64376   358.43096     3.36056    90.35624     1.56904     3.36056
    30.50000    89.64378   358.43101     3.36066    90.35622     1.56899     3.36066
    30.60000    89.64379   358.43107     3.36077    90.35621     1.56893     3.36077
    30.70000    89.64380   358.43113     3.36088    90.35620     1.56887     3.36088
    30.80000    89.64381   358.43119     3.36099    90.35619     1.56881     3.36099
    30.90000    89.64383   358.43124     3.36110    90.35617     1.56876     3.36110
    31.00000    89.64384   358.43130     3.36121    90.35616     1.56870     3.36121
    31.10000    89.64385   358.43136     3.36131    90.35615     1.56864     3.36131
    31.20000    89.64386   358.43141     3.36142    90.35614     1.56859     3.36142
    31.30000    89.64387   358.43147     3.36153    90.35613     1.56853     3.36153
    31.40000    89.64389   358.43153     3.36164    90.35611     1.56847     3.36164
    31.50000    89.64390   358.43158     3.36175    90.35610     1.56842     3.36175
    31.60000    89.64391   358.43164     3.36185    90.35609     1.56836     3.36185
    31.70000    89.64392   358.43170     3.36196    90.35608     1.56830     3.36196
    31.80000    89.64394   358.43175     3.36207    90.35606     1.56825     3.36207
    31.90000    89.64395   358.43181     3.36218    90.35605     1.56819     3.36218
    32.00000    89.64396   358.43187     3.36229    90.35604     1.56813     3.36229
    32.10000    89.64397   358.43192     3.36239    90.35603     1.56808     3.36239
    32.20000    89.64398   358.43198     3.36250    90.35602     1.56802     3.36250
    32.30000    89.64400   358.43204     3.36261    90.35600     1.56796     3.36261
    32.40000    89.64401   358.43209     3.36272    90.35599     1.56791     3.36272
    32.50000    89.64402   358.43215     3.36282    90.35598     1.56785     3.36282
    32.60000    89.64403   358.43221     3.36293    90.35597     1.56779     3.36293
    32.70000    89.64405   358.43226     3.36304    90.35595     1.56774     3.36304
    32.80000    89.64406   358.43232     3.36315    90.35594     1.56768     3.36315
    32.90000    89.64407   358.43238     3.36325    90.35593     1.56762     3.36325
    33.00000    89.64408   358.43244     3.36336    90.35592     1.56756     3.36336
    33.10000    89.64409   358.43249     3.36347    90.35591     1.56751     3.36347
    33.20000    89.64411   358.43255     3.36358    90.35589     1.56745     3.36358
    33.30000    89.64412   358.43261     3.36368    90.35588     1.56739     3.36368
    33.40000    89.64413   358.43266     3.36379    90.35587     1.56734     3.36379
    33.50000    89.64414   358.43272     3.36390    90.35586     1.56728     3.36390
    33.60000    89.64416   358.43278     3.36401    90.35584     1.56722     3.36401
    33.70000    89.64417   358.43283     3.36411    90.35583     1.56717     3.36411
    33.80000    89.64418   358.43289     3.36422    90.35582     1.56711     3.36422
    33.90000    89.64419   358.43294     3.36433    90.35581     1.56706     3.36433
    34.00000    89.64420   358.43300     3.36444    90.35580     1.56700     3.36444
    34.10000    89.64422   358.43306     3.36454    90.35578     1.56694     3.36454
    34.20000    89.64423   358.43311     3.36465    90.35577     1.56689     3.36465
    34.30000    89.64424   358.43317     3.36476    90.35576     1.56683     3.36476
    34.40000    89.64425   358.43323     3.36486    90.35575     1.56677     3.36486
    34.50000    89.64427   358.43328     3.36497    90.35573     1.56672     3.36497
    34.60000    89.64428   358.43334     3.36508    90.35572     1.56666     3.36508
    34.70000    89.64429   358.43340     3.36519    90.35571     1.56660     3.36519
    34.80000    89.64430   358.43345     3.36529    90.35570     1.56655     3.36529
    34.90000    89.64431   358.43351     3.36540    90.35569     1.56649     3.36540
    35.00000    89.64433   358.43357     3.36551    90.35567     1.56643     3.36551
    35.10000    89.64434   358.43362     3.36561    90.35566     1.56638     3.36561
    35.20000    89.64435   358.43368     3.36572    90.35565     1.56632     3.36572
    35.30000    89.64436   358.43374     3.36583    90.35564     1.56626     3.36583
    35.40000    89.64438   358.43379     3.36593    90.35562     1.56621     3.36593
    35.50000    89.64439   358.43385     3.36604    90.35561     1.56615     3.36604
    35.60000    89.64440   358.43391     3.36615    90.35560     1.56609     3.36615
    35.70000    89.64441   358.43396     3.36625    90.35559     1.56604     3.36625
    35.80000    89.64442   358.43402     3.36636    90.35558     1.56598     3.36636
    35.90000    89.64444   358.43407     3.36647    90.35556     1.56593     3.36647
    36.00000    89.64445   358.43413     3.36657    90.35555     1.56587     3.36657
    36.10000    89.64446   358.43419     3.36668    90.35554     1.56581     3.36668
    36.20000    89.64447   358.43424     3.36679    90.35553     1.56576     3.36679
    36.30000    89.64448   358.43430     3.36689    90.35552     1.56570     3.36689
    36.40000    89.64450   358.43436     3.36700    90.35550     1.56564     3.36700
    36.50000    89.64451   358.43441     3.36711    90.35549     1.56559     3.36711
    36.60000    89.64452   358.43447     3.36721    90.35548     1.56553     3.36721
    36.70000    89.64453   358.43453     3.36732    90.35547     1.56547     3.36732
    36.80000    89.64455   358.43458     3.36743    90.35545     1.56542     3.36743
    36.90000    89.64456   358.43464     3.36753    90.35544     1.56536     3.36753
    37.00000    89.64457   358.43469     3.36764    90.35543     1.56531     3.36764
    37.10000    89.64458   358.43475     3.36775    90.35542     1.56525     3.36775
    37.20000    89.64459   358.43481     3.36785    90.35541     1.56519     3.36785
    37.30000    89.64461   358.43486     3.36796    90.35539     1.56514     3.36796
    37.40000    89.64462   358.43492     3.36806    90.35538     1.56508     3.36806
    37.50000    89.64463   358.43498     3.36817    90.35537     1.56502     3.36817
    37.60000    89.64464   358.43503     3.36828    90.35536     1.56497     3.36828
    37.70000    89.64465   358.43509     3.36838    90.35535     1.56491     3.36838
    37.80000    89.64467   358.43514     3.36849    90.35533     1.56486     3.36849
    37.90000    89.64468   358.43520     3.36860    90.35532     1.56480     3.36860
    38.00000    89.64469   358.43526     3.36870    90.35531     1.56474     3.36870
    38.10000    89.64470   358.43531     3.36881    90.35530     1.56469     3.36881
    38.20000    89.64472   358.43537     3.36891    90.35528     1.56463     3.36891
    38.30000    89.64473   358.43543     3.36902    90.35527     1.56457     3.36902
    38.40000    89.64474   358.43548     3.36913    90.35526     1.56452     3.36913
    38.50000    89.64475   358.43554     3.36923    90.35525     1.56446     3.36923
    38.60000    89.64476   358.43559     3.36934    90.35524     1.56441     3.36934
    38.70000    89.64478   358.43565     3.36944    90.35522     1.56435     3.36944
    38.80000    89.64479   358.43571     3.36955    90.35521     1.56429     3.36955
    38.90000    89.64480   358.43576     3.36965    90.35520     1.56424     3.36965
    39.00000    89.64481   358.43582     3.36976    90.35519     1.56418     3.36976
    39.10000    89.64482   358.43587     3.36987    90.35518     1.56413     3.36987
    39.20000    89.64484   358.43593     3.36997    90.35516     1.56407     3.36997
    39.30000    89.64485   358.43599     3.37008    90.35515     1.56401     3.37008
    39.40000    89.64486   358.43604     3.37018    90.35514     1.56396     3.37018
    39.50000    89.64487   358.43610     3.37029    90.35513     1.56390     3.37029
    39.60000    89.64488   358.43615     3.37039    90.35512     1.56385     3.37039
    39.70000    89.64490   358.43621     3.37050    90.35510     1.56379     3.37050
    39.80000    89.64491   358.43627     3.37060    90.35509     1.56373     3.37060
    39.90000    89.64492   358.43632     3.37071    90.35508     1.56368     3.37071
    40.00000    89.64493   358.43638     3.37082    90.35507     1.56362     3.37082
