 # applied field (T), theta (degree), phi (degree), abs for RE 3-4
     0.00000     0.00000     0.00000     4.71935     0.00000     0.00000     4.71935
     0.10000     0.10067   360.00000     4.71935     0.13393   360.00000     4.71935
     0.20000     0.23405   360.00000     4.71935     0.31142   360.00000     4.71935
     0.30000     0.33472   360.00000     4.71935     0.44535   360.00000     4.71935
     0.40000     0.46812   360.00000     4.71934     0.62285   360.00000     4.71935
     0.50000     0.56880   360.00000     4.71934     0.75678   360.00000     4.71934
     0.60000     0.66949   360.00000     4.71933     0.89071   360.00000     4.71934
     0.70000     0.80292   360.00000     4.71933     1.06821   360.00000     4.71934
     0.80000     0.90364   360.00000     4.71932     1.20215   360.00000     4.71933
     0.90000     1.03710   360.00000     4.71931     1.37967   360.00000     4.71933
     1.00000     1.13785   360.00000     4.71931     1.51361   360.00000     4.71932
     1.10000     1.23861   360.00000     4.71930     1.64756   360.00000     4.71932
     1.20000     1.37214   360.00000     4.71928     1.82510   360.00000     4.71931
     1.30000     1.47295   360.00000     4.71927     1.95906   360.00000     4.71930
     1.40000     1.57377   360.00000     4.71926     2.09302   360.00000     4.71930
     1.50000     1.70739   360.00000     4.71925     2.27058   360.00000     4.71929
     1.60000     1.80827   360.00000     4.71924     2.40455   360.00000     4.71928
     1.70000     1.94196   360.00000     4.71922     2.58213   360.00000     4.71927
     1.80000     2.04290   360.00000     4.71921     2.71612   360.00000     4.71926
     1.90000     2.14386   360.00000     4.71919     2.85012   360.00000     4.71925
     2.00000     2.27768   360.00000     4.71917     3.02772   360.00000     4.71924
     2.10000     2.37871   360.00000     4.71915     3.16174   360.00000     4.71923
     2.20000     2.51263   360.00000     4.71913     3.33937   360.00000     4.71921
     2.30000     2.61374   360.00000     4.71911     3.47340   360.00000     4.71920
     2.40000     2.71489   360.00000     4.71910     3.60745   360.00000     4.71919
     2.50000     2.84896   360.00000     4.71907     3.78511   360.00000     4.71917
     2.60000     2.95020   360.00000     4.71905     3.91918   360.00000     4.71916
     2.70000     3.08439   360.00000     4.71902     4.09688   360.00000     4.71914
     2.80000     3.18573   360.00000     4.71900     4.23097   360.00000     4.71913
     2.90000     3.28710   360.00000     4.71898     4.36507   360.00000     4.71912
     3.00000     3.42149   360.00000     4.71895     4.54281   360.00000     4.71910
     3.10000     3.52297   360.00000     4.71892     4.67694   360.00000     4.71908
     3.20000     3.62451   360.00000     4.71890     4.81108   360.00000     4.71906
     3.30000     3.75911   360.00000     4.71886     4.98888   360.00000     4.71904
     3.40000     3.86076   360.00000     4.71884     5.12305   360.00000     4.71903
     3.50000     3.99552   360.00000     4.71880     5.30088   360.00000     4.71900
     3.60000     4.09730   360.00000     4.71877     5.43508   360.00000     4.71899
     3.70000     4.19913   360.00000     4.71874     5.56929   360.00000     4.71897
     3.80000     4.33415   360.00000     4.71870     5.74719   360.00000     4.71894
     3.90000     4.43612   360.00000     4.71867     5.88144   360.00000     4.71893
     4.00000     4.53815   360.00000     4.71864     6.01569   360.00000     4.71891
     4.10000     4.67343   360.00000     4.71860     6.19366   360.00000     4.71888
     4.20000     4.77561   360.00000     4.71856     6.32795   360.00000     4.71886
     4.30000     4.87786   360.00000     4.71853     6.46226   360.00000     4.71884
     4.40000     5.01343   360.00000     4.71848     6.64030   360.00000     4.71881
     4.50000     5.11584   360.00000     4.71845     6.77465   360.00000     4.71879
     4.60000     5.25163   360.00000     4.71840     6.95274   360.00000     4.71876
     4.70000     5.35420   360.00000     4.71836     7.08712   360.00000     4.71873
     4.80000     5.45685   360.00000     4.71833     7.22153   360.00000     4.71871
     4.90000     5.59297   360.00000     4.71827     7.39970   360.00000     4.71868
     5.00000     5.69580   360.00000     4.71823     7.53415   360.00000     4.71866
     5.10000     5.79871   360.00000     4.71819     7.66861   360.00000     4.71863
     5.20000     5.93518   360.00000     4.71814     7.84686   360.00000     4.71860
     5.30000     6.03828   360.00000     4.71810     7.98138   360.00000     4.71857
     5.40000     6.14146   360.00000     4.71805     8.11591   360.00000     4.71855
     5.50000     6.27830   360.00000     4.71800     8.29425   360.00000     4.71851
     5.60000     6.38169   360.00000     4.71795     8.42883   360.00000     4.71848
     5.70000     6.48516   360.00000     4.71791     8.56343   360.00000     4.71846
     5.80000     6.62241   360.00000     4.71785     8.74186   360.00000     4.71842
     5.90000     6.72609   360.00000     4.71780     8.87651   360.00000     4.71839
     6.00000     6.82988   360.00000     4.71775     9.01118   360.00000     4.71836
     6.10000     6.96754   360.00000     4.71769     9.18971   360.00000     4.71832
     6.20000     7.07155   360.00000     4.71764     9.32444   360.00000     4.71829
     6.30000     7.17566   360.00000     4.71759     9.45919   360.00000     4.71826
     6.40000     7.31376   360.00000     4.71752     9.63782   360.00000     4.71822
     6.50000     7.41811   360.00000     4.71747     9.77262   360.00000     4.71819
     6.60000     7.52257   360.00000     4.71741     9.90745   360.00000     4.71816
     6.70000     7.66113   360.00000     4.71734    10.08619   360.00000     4.71812
     6.80000     7.76584   360.00000     4.71729    10.22107   360.00000     4.71808
     6.90000     7.87066   360.00000     4.71723    10.35598   360.00000     4.71805
     7.00000     8.00971   360.00000     4.71716    10.53483   360.00000     4.71801
     7.10000     8.11479   360.00000     4.71710    10.66980   360.00000     4.71797
     7.20000     8.21999   360.00000     4.71704    10.80480   360.00000     4.71794
     7.30000     8.35955   360.00000     4.71696    10.98376   360.00000     4.71789
     7.40000     8.46503   360.00000     4.71690    11.11882   360.00000     4.71786
     7.50000     8.57062   360.00000     4.71684    11.25391   360.00000     4.71782
     7.60000     8.67634   360.00000     4.71678    11.38902   360.00000     4.71778
     7.70000     8.81661   360.00000     4.71670    11.56814   360.00000     4.71774
     7.80000     8.92263   360.00000     4.71663    11.70332   360.00000     4.71770
     7.90000     9.02877   360.00000     4.71657    11.83853   360.00000     4.71766
     8.00000     9.16961   360.00000     4.71649    12.01778   360.00000     4.71761
     8.10000     9.27606   360.00000     4.71642    12.15305   360.00000     4.71757
     8.20000     9.38264   360.00000     4.71635    12.28836   360.00000     4.71753
     8.30000     9.48936   360.00000     4.71628    12.42369   360.00000     4.71749
     8.40000     9.63097   360.00000     4.71619    12.60312   360.00000     4.71744
     8.50000     9.73802   360.00000     4.71612    12.73852   360.00000     4.71740
     8.60000     9.84521   360.00000     4.71605    12.87396   360.00000     4.71736
     8.70000     9.98745   360.00000     4.71596    13.05352   360.00000     4.71731
     8.80000    10.09498   360.00000     4.71589    13.18903   360.00000     4.71727
     8.90000    10.20265   360.00000     4.71581    13.32457   360.00000     4.71722
     9.00000    10.31047   360.00000     4.71574    13.46014   360.00000     4.71718
     9.10000    10.45357   360.00000     4.71564    13.63989   360.00000     4.71713
     9.20000    10.56175   360.00000     4.71557    13.77554   360.00000     4.71708
     9.30000    10.67009   360.00000     4.71549    13.91122   360.00000     4.71704
     9.40000    10.77858   360.00000     4.71541    14.04694   360.00000     4.71699
     9.50000    10.92258   360.00000     4.71531    14.22688   360.00000     4.71694
     9.60000    11.03145   360.00000     4.71523    14.36268   360.00000     4.71689
     9.70000    11.14049   360.00000     4.71515    14.49851   360.00000     4.71685
     9.80000    11.24969   360.00000     4.71507    14.63437   360.00000     4.71680
     9.90000    11.39463   360.00000     4.71496    14.81452   360.00000     4.71674
    10.00000    11.50423   360.00000     4.71488    14.95047   360.00000     4.71669
    10.10000    11.61399   360.00000     4.71479    15.08645   360.00000     4.71665
    10.20000    11.72393   360.00000     4.71471    15.22247   360.00000     4.71660
    10.30000    11.86987   360.00000     4.71460    15.40283   360.00000     4.71654
    10.40000    11.98023   360.00000     4.71451    15.53893   360.00000     4.71649
    10.50000    12.09076   360.00000     4.71442    15.67508   360.00000     4.71644
    10.60000    12.20148   360.00000     4.71433    15.81126   360.00000     4.71639
    10.70000    12.31238   360.00000     4.71424    15.94748   360.00000     4.71634
    10.80000    12.45962   360.00000     4.71412    16.12810   360.00000     4.71627
    10.90000    12.57096   360.00000     4.71403    16.26441   360.00000     4.71622
    11.00000    12.68249   360.00000     4.71394    16.40076   360.00000     4.71617
    11.10000    12.79422   360.00000     4.71385    16.53715   360.00000     4.71612
    11.20000    12.90614   360.00000     4.71375    16.67357   360.00000     4.71607
    11.30000    13.05474   360.00000     4.71363    16.85448   360.00000     4.71600
    11.40000    13.16713   360.00000     4.71353    16.99100   360.00000     4.71595
    11.50000    13.27972   360.00000     4.71343    17.12757   360.00000     4.71590
    11.60000    13.39251   360.00000     4.71334    17.26417   360.00000     4.71584
    11.70000    13.50551   360.00000     4.71324    17.40081   360.00000     4.71579
    11.80000    13.65556   360.00000     4.71311    17.58202   360.00000     4.71572
    11.90000    13.76905   360.00000     4.71300    17.71876   360.00000     4.71567
    12.00000    13.88275   360.00000     4.71290    17.85555   360.00000     4.71561
    12.10000    13.99667   360.00000     4.71280    17.99237   360.00000     4.71556
    12.20000    14.11081   360.00000     4.71270    18.12925   360.00000     4.71550
    12.30000    14.26238   360.00000     4.71256    18.31076   360.00000     4.71543
    12.40000    14.37704   360.00000     4.71245    18.44773   360.00000     4.71537
    12.50000    14.49192   360.00000     4.71234    18.58475   360.00000     4.71531
    12.60000    14.60703   360.00000     4.71224    18.72181   360.00000     4.71526
    12.70000    14.72237   360.00000     4.71213    18.85892   360.00000     4.71520
    12.80000    14.83794   360.00000     4.71202    18.99608   360.00000     4.71514
    12.90000    14.95374   360.00000     4.71191    19.13328   360.00000     4.71508
    13.00000    15.10756   360.00000     4.71176    19.31523   360.00000     4.71501
    13.10000    15.22392   360.00000     4.71165    19.45254   360.00000     4.71495
    13.20000    15.34052   360.00000     4.71153    19.58990   360.00000     4.71489
    13.30000    15.45737   360.00000     4.71142    19.72730   360.00000     4.71483
    13.40000    15.57447   360.00000     4.71130    19.86476   360.00000     4.71477
    13.50000    15.69182   360.00000     4.71118    20.00226   360.00000     4.71471
    13.60000    15.80941   360.00000     4.71107    20.13980   360.00000     4.71465
    13.70000    15.96563   360.00000     4.71091    20.32223   360.00000     4.71457
    13.80000    16.08382   360.00000     4.71079    20.45989   360.00000     4.71450
    13.90000    16.20227   360.00000     4.71067    20.59761   360.00000     4.71444
    14.00000    16.32099   360.00000     4.71055    20.73537   360.00000     4.71438
    14.10000    16.43997   360.00000     4.71042    20.87319   360.00000     4.71432
    14.20000    16.55922   360.00000     4.71030    21.01105   360.00000     4.71425
    14.30000    16.67874   360.00000     4.71017    21.14897   360.00000     4.71419
    14.40000    16.79853   360.00000     4.71005    21.28694   360.00000     4.71412
    14.50000    16.91860   360.00000     4.70992    21.42496   360.00000     4.71406
    14.60000    17.03894   360.00000     4.70979    21.56304   360.00000     4.71399
    14.70000    17.19884   360.00000     4.70962    21.74617   360.00000     4.71391
    14.80000    17.31983   360.00000     4.70949    21.88437   360.00000     4.71384
    14.90000    17.44112   360.00000     4.70936    22.02262   360.00000     4.71378
    15.00000    17.56269   360.00000     4.70923    22.16093   360.00000     4.71371
    15.10000    17.68456   360.00000     4.70909    22.29930   360.00000     4.71364
    15.20000    17.80672   360.00000     4.70896    22.43771   360.00000     4.71357
    15.30000    17.92917   360.00000     4.70882    22.57619   360.00000     4.71351
    15.40000    18.05193   360.00000     4.70868    22.71472   360.00000     4.71344
    15.50000    18.17499   360.00000     4.70855    22.85331   360.00000     4.71337
    15.60000    18.29835   360.00000     4.70841    22.99195   360.00000     4.71330
    15.70000    18.42202   360.00000     4.70827    23.13066   360.00000     4.71323
    15.80000    18.54600   360.00000     4.70813    23.26942   360.00000     4.71316
    15.90000    18.67029   360.00000     4.70798    23.40824   360.00000     4.71309
    16.00000    18.79489   360.00000     4.70784    23.54712   360.00000     4.71302
    16.10000    18.91982   360.00000     4.70769    23.68606   360.00000     4.71295
    16.20000    19.04507   360.00000     4.70755    23.82505   360.00000     4.71288
    16.30000    19.21153   360.00000     4.70736    24.00944   360.00000     4.71278
    16.40000    19.33754   360.00000     4.70721    24.14858   360.00000     4.71271
    16.50000    19.46387   360.00000     4.70706    24.28779   360.00000     4.71264
    16.60000    19.59054   360.00000     4.70691    24.42705   360.00000     4.71257
    16.70000    19.71754   360.00000     4.70676    24.56638   360.00000     4.71249
    16.80000    19.84489   360.00000     4.70660    24.70577   360.00000     4.71242
    16.90000    19.97257   360.00000     4.70645    24.84523   360.00000     4.71234
    17.00000    20.10060   360.00000     4.70630    24.98475   360.00000     4.71227
    17.10000    20.22898   360.00000     4.70614    25.12434   360.00000     4.71219
    17.20000    20.35771   360.00000     4.70598    25.26399   360.00000     4.71212
    17.30000    20.48680   360.00000     4.70582    25.40371   360.00000     4.71204
    17.40000    20.61624   360.00000     4.70566    25.54349   360.00000     4.71197
    17.50000    20.74604   360.00000     4.70550    25.68335   360.00000     4.71189
    17.60000    20.87620   360.00000     4.70534    25.82327   360.00000     4.71181
    17.70000    21.00673   360.00000     4.70518    25.96325   360.00000     4.71173
    17.80000    21.13763   360.00000     4.70501    26.10331   360.00000     4.71166
    17.90000    21.26890   360.00000     4.70485    26.24344   360.00000     4.71158
    18.00000    21.40054   360.00000     4.70468    26.38364   360.00000     4.71150
    18.10000    21.53256   360.00000     4.70451    26.52391   360.00000     4.71142
    18.20000    21.66497   360.00000     4.70435    26.66425   360.00000     4.71134
    18.30000    21.79775   360.00000     4.70418    26.80466   360.00000     4.71126
    18.40000    21.93093   360.00000     4.70400    26.94515   360.00000     4.71118
    18.50000    22.06450   360.00000     4.70383    27.08571   360.00000     4.71110
    18.60000    22.19846   360.00000     4.70366    27.22635   360.00000     4.71101
    18.70000    22.28908   360.00000     4.70354    27.32118   360.00000     4.71096
    18.80000    22.42370   360.00000     4.70336    27.46194   360.00000     4.71087
    18.90000    22.55873   360.00000     4.70319    27.60277   360.00000     4.71079
    19.00000    22.69416   360.00000     4.70301    27.74369   360.00000     4.71071
    19.10000    22.83001   360.00000     4.70283    27.88468   360.00000     4.71062
    19.20000    22.96626   360.00000     4.70265    28.02575   360.00000     4.71054
    19.30000    23.10293   360.00000     4.70247    28.16689   360.00000     4.71045
    19.40000    23.24002   360.00000     4.70228    28.30812   360.00000     4.71037
    19.50000    23.37753   360.00000     4.70210    28.44943   360.00000     4.71028
    19.60000    23.51546   360.00000     4.70191    28.59082   360.00000     4.71020
    19.70000    23.65382   360.00000     4.70173    28.73229   360.00000     4.71011
    19.80000    23.79262   360.00000     4.70154    28.87385   360.00000     4.71002
    19.90000    23.93184   360.00000     4.70135    29.01549   360.00000     4.70993
    20.00000    24.07151   360.00000     4.70116    29.15721   360.00000     4.70985
    20.10000    24.21162   360.00000     4.70097    29.29902   360.00000     4.70976
    20.20000    24.35217   360.00000     4.70078    29.44092   360.00000     4.70967
    20.30000    24.49318   360.00000     4.70058    29.58290   360.00000     4.70958
    20.40000    24.58857   360.00000     4.70045    29.67863   360.00000     4.70952
    20.50000    24.73033   360.00000     4.70025    29.82076   360.00000     4.70942
    20.60000    24.87254   360.00000     4.70006    29.96298   360.00000     4.70933
    20.70000    25.01522   360.00000     4.69986    30.10529   360.00000     4.70924
    20.80000    25.15836   360.00000     4.69966    30.24769   360.00000     4.70915
    20.90000    25.30197   360.00000     4.69946    30.39018   360.00000     4.70906
    21.00000    25.44605   360.00000     4.69925    30.53277   360.00000     4.70896
    21.10000    25.59060   360.00000     4.69905    30.67545   360.00000     4.70887
    21.20000    25.73564   360.00000     4.69885    30.81823   360.00000     4.70878
    21.30000    25.88115   360.00000     4.69864    30.96110   360.00000     4.70868
    21.40000    25.97959   360.00000     4.69850    31.05742   360.00000     4.70861
    21.50000    26.12592   360.00000     4.69829    31.20045   360.00000     4.70852
    21.60000    26.27273   360.00000     4.69808    31.34359   360.00000     4.70842
    21.70000    26.42004   360.00000     4.69787    31.48682   360.00000     4.70832
    21.80000    26.56785   360.00000     4.69766    31.63015   360.00000     4.70823
    21.90000    26.71616   360.00000     4.69745    31.77359   360.00000     4.70813
    22.00000    26.86497   360.00000     4.69723    31.91713   360.00000     4.70803
    22.10000    27.01429   360.00000     4.69702    32.06077   360.00000     4.70793
    22.20000    27.16412   360.00000     4.69680    32.20452   360.00000     4.70783
    22.30000    27.26548   360.00000     4.69665    32.30142   360.00000     4.70776
    22.40000    27.41618   360.00000     4.69643    32.44535   360.00000     4.70766
    22.50000    27.56739   360.00000     4.69621    32.58938   360.00000     4.70756
    22.60000    27.71913   360.00000     4.69599    32.73352   360.00000     4.70746
    22.70000    27.87140   360.00000     4.69577    32.87777   360.00000     4.70735
    22.80000    28.02419   360.00000     4.69554    33.02214   360.00000     4.70725
    22.90000    28.17753   360.00000     4.69532    33.16662   360.00000     4.70715
    23.00000    28.28125   360.00000     4.69516    33.26401   360.00000     4.70707
    23.10000    28.43548   360.00000     4.69494    33.40868   360.00000     4.70697
    23.20000    28.59026   360.00000     4.69471    33.55347   360.00000     4.70686
    23.30000    28.74558   360.00000     4.69448    33.69837   360.00000     4.70675
    23.40000    28.90145   360.00000     4.69425    33.84339   360.00000     4.70665
    23.50000    29.05788   360.00000     4.69402    33.98853   360.00000     4.70654
    23.60000    29.21486   360.00000     4.69379    34.13379   360.00000     4.70643
    23.70000    29.32105   360.00000     4.69363    34.23172   360.00000     4.70635
    23.80000    29.47898   360.00000     4.69339    34.37718   360.00000     4.70624
    23.90000    29.63746   360.00000     4.69315    34.52278   360.00000     4.70613
    24.00000    29.79652   360.00000     4.69292    34.66850   360.00000     4.70602
    24.10000    29.95615   360.00000     4.69268    34.81435   360.00000     4.70591
    24.20000    30.11636   360.00000     4.69244    34.96033   360.00000     4.70580
    24.30000    30.27715   360.00000     4.69220    35.10644   360.00000     4.70569
    24.40000    30.38590   360.00000     4.69203    35.20492   360.00000     4.70561
    24.50000    30.54766   360.00000     4.69179    35.35125   360.00000     4.70549
    24.60000    30.71002   360.00000     4.69155    35.49772   360.00000     4.70538
    24.70000    30.87296   360.00000     4.69130    35.64432   360.00000     4.70526
    24.80000    31.03649   360.00000     4.69106    35.79106   360.00000     4.70514
    24.90000    31.20063   360.00000     4.69081    35.93795   360.00000     4.70503
    25.00000    31.31164   360.00000     4.69064    36.03695   360.00000     4.70494
    25.10000    31.47678   360.00000     4.69039    36.18407   360.00000     4.70482
    25.20000    31.64253   360.00000     4.69014    36.33133   360.00000     4.70470
    25.30000    31.80889   360.00000     4.68989    36.47873   360.00000     4.70458
    25.40000    31.97585   360.00000     4.68964    36.62629   360.00000     4.70446
    25.50000    32.14344   360.00000     4.68939    36.77399   360.00000     4.70434
    25.60000    32.25677   360.00000     4.68922    36.87355   360.00000     4.70425
    25.70000    32.42539   360.00000     4.68896    37.02151   360.00000     4.70413
    25.80000    32.59464   360.00000     4.68871    37.16962   360.00000     4.70401
    25.90000    32.76450   360.00000     4.68845    37.31789   360.00000     4.70388
    26.00000    32.93500   360.00000     4.68819    37.46631   360.00000     4.70376
    26.10000    33.10613   360.00000     4.68794    37.61489   360.00000     4.70363
    26.20000    33.22185   360.00000     4.68776    37.71504   360.00000     4.70354
    26.30000    33.39404   360.00000     4.68750    37.86389   360.00000     4.70341
    26.40000    33.56688   360.00000     4.68724    38.01291   360.00000     4.70328
    26.50000    33.74035   360.00000     4.68698    38.16210   360.00000     4.70315
    26.60000    33.91446   360.00000     4.68672    38.31145   360.00000     4.70302
    26.70000    34.08923   360.00000     4.68645    38.46098   360.00000     4.70289
    26.80000    34.20740   360.00000     4.68627    38.56176   360.00000     4.70279
    26.90000    34.38324   360.00000     4.68601    38.71157   360.00000     4.70266
    27.00000    34.55975   360.00000     4.68574    38.86156   360.00000     4.70253
    27.10000    34.73691   360.00000     4.68548    39.01173   360.00000     4.70239
    27.20000    34.91473   360.00000     4.68521    39.16208   360.00000     4.70225
    27.30000    35.09320   360.00000     4.68495    39.31261   360.00000     4.70211
    27.40000    35.21387   360.00000     4.68476    39.41407   360.00000     4.70202
    27.50000    35.39345   360.00000     4.68449    39.56491   360.00000     4.70188
    27.60000    35.57371   360.00000     4.68423    39.71594   360.00000     4.70174
    27.70000    35.75463   360.00000     4.68396    39.86716   360.00000     4.70160
    27.80000    35.93622   360.00000     4.68369    40.01857   360.00000     4.70145
    27.90000    36.05897   360.00000     4.68350    40.12062   360.00000     4.70135
    28.00000    36.24168   360.00000     4.68323    40.27236   360.00000     4.70121
    28.10000    36.42507   360.00000     4.68296    40.42431   360.00000     4.70106
    28.20000    36.60914   360.00000     4.68269    40.57645   360.00000     4.70092
    28.30000    36.79388   360.00000     4.68242    40.72880   360.00000     4.70077
    28.40000    36.97931   360.00000     4.68214    40.88136   360.00000     4.70062
    28.50000    37.16541   360.00000     4.68187    41.03412   360.00000     4.70047
    28.60000    37.29119   360.00000     4.68168    41.13707   360.00000     4.70036
    28.70000    37.47844   360.00000     4.68141    41.29020   360.00000     4.70021
    28.80000    37.66637   360.00000     4.68114    41.44353   360.00000     4.70006
    28.90000    37.85498   360.00000     4.68087    41.59709   360.00000     4.69990
    29.00000    38.04429   360.00000     4.68059    41.75087   360.00000     4.69975
    29.10000    38.23428   360.00000     4.68032    41.90488   360.00000     4.69959
    29.20000    38.36266   360.00000     4.68013    42.00866   360.00000     4.69948
    29.30000    38.55380   360.00000     4.67986    42.16305   360.00000     4.69932
    29.40000    38.74563   360.00000     4.67958    42.31767   360.00000     4.69916
    29.50000    38.93815   360.00000     4.67931    42.47252   360.00000     4.69900
    29.60000    39.13136   360.00000     4.67903    42.62761   360.00000     4.69884
    29.70000    39.32527   360.00000     4.67876    42.78294   360.00000     4.69867
    29.80000    39.51986   360.00000     4.67849    42.93852   360.00000     4.69851
    29.90000    39.65132   360.00000     4.67830    43.04336   360.00000     4.69839
    30.00000    39.84707   360.00000     4.67802    43.19935   360.00000     4.69822
    30.10000    40.04351   360.00000     4.67775    43.35560   360.00000     4.69805
    30.20000    40.24065   360.00000     4.67748    43.51210   360.00000     4.69788
    30.30000    40.43847   360.00000     4.67720    43.66885   360.00000     4.69771
    30.40000    40.63699   360.00000     4.67693    43.82587   360.00000     4.69754
    30.50000    40.83620   360.00000     4.67666    43.98316   360.00000     4.69736
    30.60000    40.97074   360.00000     4.67647    44.08915   360.00000     4.69724
    30.70000    41.17109   360.00000     4.67620    44.24688   360.00000     4.69706
    30.80000    41.37214   360.00000     4.67593    44.40489   360.00000     4.69688
    30.90000    41.57388   360.00000     4.67566    44.56317   360.00000     4.69670
    31.00000    41.77630   360.00000     4.67539    44.72174   360.00000     4.69652
    31.10000    41.97941   360.00000     4.67512    44.88059   360.00000     4.69633
    31.20000    42.18320   360.00000     4.67485    45.03973   360.00000     4.69615
    31.30000    42.38768   360.00000     4.67458    45.19916   360.00000     4.69596
    31.40000    42.59284   360.00000     4.67431    45.35889   360.00000     4.69577
    31.50000    42.73134   360.00000     4.67413    45.46652   360.00000     4.69564
    31.60000    42.93764   360.00000     4.67386    45.62674   360.00000     4.69545
    31.70000    43.14461   360.00000     4.67360    45.78728   360.00000     4.69526
    31.80000    43.35225   360.00000     4.67333    45.94812   360.00000     4.69506
    31.90000    43.56057   360.00000     4.67307    46.10927   360.00000     4.69487
    32.00000    43.76956   360.00000     4.67281    46.27074   360.00000     4.69467
    32.10000    43.97922   360.00000     4.67255    46.43253   360.00000     4.69447
    32.20000    44.18954   360.00000     4.67229    46.59465   360.00000     4.69427
    32.30000    44.40053   360.00000     4.67203    46.75709   360.00000     4.69406
    32.40000    44.61217   360.00000     4.67177    46.91987   360.00000     4.69386
    32.50000    44.82448   360.00000     4.67151    47.08299   360.00000     4.69365
    32.60000    45.03744   360.00000     4.67126    47.24644   360.00000     4.69344
    32.70000    45.18111   360.00000     4.67108    47.35658   360.00000     4.69330
    32.80000    45.39515   360.00000     4.67083    47.52062   360.00000     4.69308
    32.90000    45.60984   360.00000     4.67058    47.68500   360.00000     4.69287
    33.00000    45.82517   360.00000     4.67033    47.84975   360.00000     4.69265
    33.10000    46.04114   360.00000     4.67008    48.01485   360.00000     4.69244
    33.20000    46.25774   360.00000     4.66983    48.18032   360.00000     4.69222
    33.30000    46.47497   360.00000     4.66959    48.34617   360.00000     4.69199
    33.40000    46.69282   360.00000     4.66935    48.51238   360.00000     4.69177
    33.50000    46.91130   360.00000     4.66910    48.67898   360.00000     4.69154
    33.60000    47.13040   360.00000     4.66886    48.84596   360.00000     4.69132
    33.70000    47.35011   360.00000     4.66863    49.01333   360.00000     4.69109
    33.80000    47.57042   360.00000     4.66839    49.18110   360.00000     4.69085
    33.90000    47.79134   360.00000     4.66816    49.34926   360.00000     4.69062
    34.00000    48.01286   360.00000     4.66792    49.51783   360.00000     4.69038
    34.10000    48.23497   360.00000     4.66769    49.68680   360.00000     4.69014
    34.20000    48.45766   360.00000     4.66746    49.85619   360.00000     4.68990
    34.30000    48.68094   360.00000     4.66724    50.02600   360.00000     4.68966
    34.40000    48.90480   360.00000     4.66701    50.19623   360.00000     4.68941
    34.50000    49.12923   360.00000     4.66679    50.36689   360.00000     4.68917
    34.60000    49.35422   360.00000     4.66657    50.53799   360.00000     4.68892
    34.70000    49.57977   360.00000     4.66635    50.70952   360.00000     4.68866
    34.80000    49.80588   360.00000     4.66614    50.88150   360.00000     4.68841
    34.90000    50.03253   360.00000     4.66593    51.05393   360.00000     4.68815
    35.00000    50.25972   360.00000     4.66572    51.22682   360.00000     4.68789
    35.10000    50.48745   360.00000     4.66551    51.40016   360.00000     4.68763
    35.20000    50.71570   360.00000     4.66530    51.57398   360.00000     4.68737
    35.30000    50.94447   360.00000     4.66510    51.74826   360.00000     4.68710
    35.40000    51.17376   360.00000     4.66490    51.92303   360.00000     4.68683
    35.50000    51.40356   360.00000     4.66470    52.09828   360.00000     4.68656
    35.60000    51.63386   360.00000     4.66450    52.27401   360.00000     4.68628
    35.70000    51.86465   360.00000     4.66431    52.45024   360.00000     4.68601
    35.80000    52.09592   360.00000     4.66412    52.62698   360.00000     4.68573
    35.90000    52.40378   360.00000     4.66388    52.86245   360.00000     4.68536
    36.00000    52.63617   360.00000     4.66369    53.04038   360.00000     4.68507
    36.10000    52.86902   360.00000     4.66351    53.21883   360.00000     4.68478
    36.20000    53.10232   360.00000     4.66333    53.39780   360.00000     4.68449
    36.30000    53.33607   360.00000     4.66316    53.57731   360.00000     4.68419
    36.40000    53.57025   360.00000     4.66299    53.75736   360.00000     4.68390
    36.50000    53.80487   360.00000     4.66282    53.93795   360.00000     4.68360
    36.60000    54.03991   360.00000     4.66265    54.11910   360.00000     4.68330
    36.70000    54.27536   360.00000     4.66249    54.30081   360.00000     4.68299
    36.80000    54.51122   360.00000     4.66232    54.48308   360.00000     4.68268
    36.90000    54.74748   360.00000     4.66217    54.66592   360.00000     4.68237
    37.00000    55.06189   360.00000     4.66197    54.90965   360.00000     4.68196
    37.10000    55.29905   360.00000     4.66181    55.09385   360.00000     4.68164
    37.20000    55.53659   360.00000     4.66167    55.27865   360.00000     4.68132
    37.30000    55.77448   360.00000     4.66152    55.46405   360.00000     4.68100
    37.40000    56.01273   360.00000     4.66138    55.65005   360.00000     4.68067
    37.50000    56.25132   360.00000     4.66124    55.83666   360.00000     4.68034
    37.60000    56.49025   360.00000     4.66110    56.02390   360.00000     4.68001
    37.70000    56.80817   360.00000     4.66093    56.27358   360.00000     4.67957
    37.80000    57.04786   360.00000     4.66080    56.46229   360.00000     4.67923
    37.90000    57.28786   360.00000     4.66067    56.65164   360.00000     4.67888
    38.00000    57.52816   360.00000     4.66055    56.84165   360.00000     4.67854
    38.10000    57.76874   360.00000     4.66043    57.03231   360.00000     4.67819
    38.20000    58.00961   360.00000     4.66031    57.22363   360.00000     4.67783
    38.30000    58.33008   360.00000     4.66017    57.47884   360.00000     4.67737
    38.40000    58.57158   360.00000     4.66006    57.67174   360.00000     4.67701
    38.50000    58.81334   360.00000     4.65995    57.86534   360.00000     4.67664
    38.60000    59.05534   360.00000     4.65984    58.05963   360.00000     4.67628
    38.70000    59.29758   360.00000     4.65974    58.25462   360.00000     4.67591
    38.80000    59.54004   360.00000     4.65964    58.45032   360.00000     4.67554
    38.90000    59.86260   360.00000     4.65952    58.71143   360.00000     4.67504
    39.00000    60.10557   360.00000     4.65943    58.90882   360.00000     4.67466
    39.10000    60.34874   360.00000     4.65934    59.10693   360.00000     4.67428
    39.20000    60.59211   360.00000     4.65925    59.30579   360.00000     4.67389
    39.30000    60.91583   360.00000     4.65915    59.57118   360.00000     4.67338
    39.40000    61.15962   360.00000     4.65907    59.77179   360.00000     4.67299
    39.50000    61.40356   360.00000     4.65899    59.97318   360.00000     4.67259
    39.60000    61.64766   360.00000     4.65892    60.17533   360.00000     4.67219
    39.70000    61.89191   360.00000     4.65885    60.37826   360.00000     4.67178
    39.80000    62.21680   360.00000     4.65876    60.64915   360.00000     4.67125
    39.90000    62.46136   360.00000     4.65870    60.85393   360.00000     4.67084
    40.00000    62.70605   360.00000     4.65863    61.05952   360.00000     4.67042
