 # applied field (T), theta (degree), phi (degree), abs for RE 1-2
     0.00000    37.71406   315.00000     0.04687    37.71406   225.00000     0.04687
     0.10000    37.44704   313.61775     0.04672    37.56059   223.66017     0.04749
     0.20000    37.22109   312.34148     0.04660    37.40826   222.49370     0.04806
     0.30000    36.97191   310.89917     0.04646    37.25903   221.24998     0.04867
     0.40000    36.73403   309.42727     0.04633    37.10970   220.05456     0.04928
     0.50000    36.53784   308.07473     0.04622    36.95720   219.01518     0.04982
     0.60000    36.32511   306.55223     0.04611    36.80381   217.90728     0.05041
     0.70000    36.12737   305.00641     0.04600    36.64647   216.84281     0.05099
     0.80000    35.97051   303.59433     0.04592    36.48355   215.91779     0.05150
     0.90000    35.80433   302.01247     0.04583    36.31565   214.93123     0.05205
     1.00000    35.65612   300.41617     0.04575    36.14081   213.98297     0.05259
     1.10000    35.52668   298.80901     0.04569    35.95817   213.07125     0.05311
     1.20000    35.41665   297.19476     0.04563    35.76693   212.19435     0.05361
     1.30000    35.32655   295.57737     0.04559    35.56636   211.35055     0.05409
     1.40000    35.25670   293.96093     0.04555    35.35577   210.53819     0.05455
     1.50000    35.19560   292.18870     0.04553    35.12980   209.68011     0.05503
     1.60000    35.16863   290.58712     0.04552    34.89633   208.92834     0.05545
     1.70000    35.16195   288.99930     0.04552    34.65100   208.20309     0.05584
     1.80000    35.16960   287.27127     0.04553    34.38547   207.43480     0.05625
     1.90000    35.20069   285.56844     0.04556    34.10478   206.69452     0.05662
     2.00000    35.25592   284.04953     0.04559    33.81853   206.04391     0.05693
     2.10000    35.32933   282.40861     0.04564    33.50701   205.35205     0.05725
     2.20000    35.42330   280.80599     0.04570    33.17864   204.68285     0.05753
     2.30000    35.54052   279.10037     0.04578    32.81887   203.97667     0.05780
     2.40000    35.67329   277.58870     0.04586    32.45382   203.34909     0.05801
     2.50000    35.82955   275.98813     0.04596    32.05343   202.68404     0.05820
     2.60000    35.99477   274.57979     0.04606    31.64944   202.09049     0.05834
     2.70000    36.19286   272.96708     0.04619    31.18618   201.40623     0.05847
     2.80000    36.39596   271.55096     0.04631    30.71806   200.78890     0.05853
     2.90000    36.61075   270.19973     0.04645    30.22609   200.18278     0.05855
     3.00000    36.84834   268.80042     0.04660    29.68479   199.53598     0.05853
     3.10000    37.09536   267.47736     0.04675    29.11489   198.89621     0.05846
     3.20000    37.36407   266.12757     0.04693    28.48700   198.21136     0.05833
     3.30000    37.62407   264.96164     0.04709    27.85573   197.57460     0.05814
     3.40000    37.91779   263.68640     0.04728    27.12834   196.83498     0.05789
     3.50000    38.19845   262.59238     0.04746    26.39580   196.13206     0.05757
     3.60000    38.49463   261.49952     0.04765    25.58964   195.35946     0.05718
     3.70000    38.80458   260.42212     0.04784    24.70216   194.50343     0.05670
     3.80000    39.11080   259.44324     0.04804    23.76705   193.59955     0.05614
     3.90000    39.42661   258.49563     0.04823    22.73895   192.57104     0.05547
     4.00000    39.74949   257.59201     0.04843    21.60922   191.37999     0.05469
     4.10000    40.06255   256.79656     0.04862    20.41919   190.04320     0.05382
     4.20000    40.37824   256.05717     0.04880    19.11633   188.42487     0.05281
     4.30000    40.69398   255.38432     0.04897    17.69397   186.40750     0.05166
     4.40000    41.01950   254.75178     0.04914    16.09058   183.67910     0.05032
     4.50000    41.33864   254.21484     0.04928    14.36433   179.97658     0.04881
     4.60000    41.64924   253.78071     0.04939    12.54052   174.69026     0.04713
     4.70000    41.96941   253.41619     0.04948    10.57774   166.03017     0.04517
     4.80000    42.28408   253.17157     0.04953     8.78418   151.47075     0.04296
     4.90000    42.59895   253.05539     0.04951     7.80227   127.15805     0.04045
     5.00000    42.91803   253.09398     0.04942     8.88719    96.95769     0.03758
     5.10000    43.25183   253.33142     0.04921    12.90184    74.14709     0.03427
     5.20000    43.60515   253.83726     0.04883    19.95610    61.78206     0.03056
     5.30000    44.02226   254.74637     0.04814    31.57403    55.85075     0.02640
     5.40000    44.61796   256.37211     0.04681    52.50490    54.92137     0.02224
     5.50000    46.09534   259.78438     0.04319    95.85644    63.76260     0.02184
     5.60000    51.87986   262.70756     0.03352   128.12014    97.29244     0.03352
     5.70000    51.86669   262.92474     0.03351   128.13331    97.07526     0.03351
     5.80000    51.85391   263.14217     0.03349   128.14609    96.85783     0.03349
     5.90000    51.84152   263.35985     0.03348   128.15848    96.64015     0.03348
     6.00000    51.82952   263.57776     0.03346   128.17048    96.42224     0.03346
     6.10000    51.81792   263.79590     0.03345   128.18208    96.20410     0.03345
     6.20000    51.80671   264.01427     0.03343   128.19329    95.98573     0.03343
     6.30000    51.79590   264.23286     0.03342   128.20410    95.76714     0.03342
     6.40000    51.78549   264.45166     0.03341   128.21451    95.54834     0.03341
     6.50000    51.77548   264.67067     0.03339   128.22452    95.32933     0.03339
     6.60000    51.76587   264.88988     0.03338   128.23413    95.11012     0.03338
     6.70000    51.75667   265.10928     0.03337   128.24333    94.89072     0.03337
     6.80000    51.74786   265.32888     0.03336   128.25214    94.67112     0.03336
     6.90000    51.73946   265.54865     0.03334   128.26054    94.45135     0.03334
     7.00000    51.73146   265.76861     0.03333   128.26854    94.23139     0.03333
     7.10000    51.72388   265.98873     0.03332   128.27612    94.01127     0.03332
     7.20000    51.71669   266.20902     0.03331   128.28331    93.79098     0.03331
     7.30000    51.70992   266.42947     0.03330   128.29008    93.57053     0.03330
     7.40000    51.70356   266.65007     0.03329   128.29644    93.34993     0.03329
     7.50000    51.69761   266.87081     0.03328   128.30239    93.12919     0.03328
     7.60000    51.69206   267.09169     0.03327   128.30794    92.90831     0.03327
     7.70000    51.68693   267.31270     0.03326   128.31307    92.68730     0.03326
     7.80000    51.68222   267.53384     0.03325   128.31778    92.46616     0.03325
     7.90000    51.67791   267.75510     0.03324   128.32209    92.24490     0.03324
     8.00000    51.67402   267.97647     0.03323   128.32598    92.02353     0.03323
     8.10000    51.67055   268.19795     0.03322   128.32945    91.80205     0.03322
     8.20000    51.66749   268.41953     0.03321   128.33251    91.58047     0.03321
     8.30000    51.66485   268.64120     0.03321   128.33515    91.35880     0.03321
     8.40000    51.66262   268.86296     0.03320   128.33738    91.13704     0.03320
     8.50000    51.66081   269.08480     0.03319   128.33919    90.91520     0.03319
     8.60000    51.65942   269.30671     0.03318   128.34058    90.69329     0.03318
     8.70000    51.65844   269.52869     0.03318   128.34156    90.47131     0.03318
     8.80000    51.65789   269.75073     0.03317   128.34211    90.24927     0.03317
     8.90000    51.65775   269.97282     0.03317   128.34225    90.02718     0.03317
     9.00000    51.65803   270.19496     0.03316   128.34197    89.80504     0.03316
     9.10000    51.65873   270.41714     0.03315   128.34127    89.58286     0.03315
     9.20000    51.65985   270.63936     0.03315   128.34015    89.36064     0.03315
     9.30000    51.66139   270.86160     0.03314   128.33861    89.13840     0.03314
     9.40000    51.66335   271.08386     0.03314   128.33665    88.91614     0.03314
     9.50000    51.66573   271.30614     0.03314   128.33427    88.69386     0.03314
     9.60000    51.66853   271.52842     0.03313   128.33147    88.47158     0.03313
     9.70000    51.67174   271.75070     0.03313   128.32826    88.24930     0.03313
     9.80000    51.67538   271.97298     0.03313   128.32462    88.02702     0.03313
     9.90000    51.67944   272.19525     0.03312   128.32056    87.80475     0.03312
    10.00000    51.68392   272.41749     0.03312   128.31608    87.58251     0.03312
    10.10000    51.68881   272.63971     0.03312   128.31119    87.36029     0.03312
    10.20000    51.69413   272.86190     0.03312   128.30587    87.13810     0.03312
    10.30000    51.69986   273.08404     0.03311   128.30014    86.91596     0.03311
    10.40000    51.70602   273.30614     0.03311   128.29398    86.69386     0.03311
    10.50000    51.71259   273.52819     0.03311   128.28741    86.47181     0.03311
    10.60000    51.71957   273.75018     0.03311   128.28043    86.24982     0.03311
    10.70000    51.72698   273.97210     0.03311   128.27302    86.02790     0.03311
    10.80000    51.73480   274.19395     0.03311   128.26520    85.80605     0.03311
    10.90000    51.74304   274.41572     0.03311   128.25696    85.58428     0.03311
    11.00000    51.75170   274.63741     0.03311   128.24830    85.36259     0.03311
    11.10000    51.76077   274.85900     0.03311   128.23923    85.14100     0.03311
    11.20000    51.77025   275.08050     0.03311   128.22975    84.91950     0.03311
    11.30000    51.78015   275.30189     0.03311   128.21985    84.69811     0.03311
    11.40000    51.79046   275.52316     0.03312   128.20954    84.47684     0.03312
    11.50000    51.80119   275.74432     0.03312   128.19881    84.25568     0.03312
    11.60000    51.81232   275.96535     0.03312   128.18768    84.03465     0.03312
    11.70000    51.82387   276.18626     0.03312   128.17613    83.81374     0.03312
    11.80000    51.83582   276.40702     0.03313   128.16418    83.59298     0.03313
    11.90000    51.84819   276.62764     0.03313   128.15181    83.37236     0.03313
    12.00000    51.86096   276.84811     0.03313   128.13904    83.15189     0.03313
    12.10000    51.87415   277.06843     0.03314   128.12585    82.93157     0.03314
    12.20000    51.88773   277.28858     0.03314   128.11227    82.71142     0.03314
    12.30000    51.90172   277.50856     0.03314   128.09828    82.49144     0.03314
    12.40000    51.91612   277.72836     0.03315   128.08388    82.27164     0.03315
    12.50000    51.93092   277.94798     0.03315   128.06908    82.05202     0.03315
    12.60000    51.94612   278.16742     0.03316   128.05388    81.83258     0.03316
    12.70000    51.96172   278.38666     0.03317   128.03828    81.61334     0.03317
    12.80000    51.97772   278.60570     0.03317   128.02228    81.39430     0.03317
    12.90000    51.99411   278.82453     0.03318   128.00589    81.17547     0.03318
    13.00000    52.01091   279.04315     0.03318   127.98909    80.95685     0.03318
    13.10000    52.02810   279.26156     0.03319   127.97190    80.73844     0.03319
    13.20000    52.04568   279.47974     0.03320   127.95432    80.52026     0.03320
    13.30000    52.06365   279.69768     0.03321   127.93635    80.30232     0.03321
    13.40000    52.08202   279.91539     0.03321   127.91798    80.08461     0.03321
    13.50000    52.10077   280.13286     0.03322   127.89923    79.86714     0.03322
    13.60000    52.11991   280.35008     0.03323   127.88009    79.64992     0.03323
    13.70000    52.13944   280.56705     0.03324   127.86056    79.43295     0.03324
    13.80000    52.15935   280.78376     0.03325   127.84065    79.21624     0.03325
    13.90000    52.17965   281.00020     0.03326   127.82035    78.99980     0.03326
    14.00000    52.20033   281.21637     0.03327   127.79967    78.78363     0.03327
    14.10000    52.22138   281.43226     0.03328   127.77862    78.56774     0.03328
    14.20000    52.24281   281.64788     0.03329   127.75719    78.35212     0.03329
    14.30000    52.26462   281.86320     0.03330   127.73538    78.13680     0.03330
    14.40000    52.28681   282.07823     0.03331   127.71319    77.92177     0.03331
    14.50000    52.30936   282.29296     0.03332   127.69064    77.70704     0.03332
    14.60000    52.33229   282.50739     0.03333   127.66771    77.49261     0.03333
    14.70000    52.35559   282.72151     0.03334   127.64441    77.27849     0.03334
    14.80000    52.37925   282.93531     0.03335   127.62075    77.06469     0.03335
    14.90000    52.40327   283.14880     0.03337   127.59673    76.85120     0.03337
    15.00000    52.42766   283.36196     0.03338   127.57234    76.63804     0.03338
    15.10000    52.45241   283.57479     0.03339   127.54759    76.42521     0.03339
    15.20000    52.47752   283.78728     0.03340   127.52248    76.21272     0.03340
    15.30000    52.50299   283.99944     0.03342   127.49701    76.00056     0.03342
    15.40000    52.52881   284.21125     0.03343   127.47119    75.78875     0.03343
    15.50000    52.55498   284.42270     0.03344   127.44502    75.57730     0.03344
    15.60000    52.58150   284.63381     0.03346   127.41850    75.36619     0.03346
    15.70000    52.60837   284.84455     0.03347   127.39163    75.15545     0.03347
    15.80000    52.63559   285.05493     0.03349   127.36441    74.94507     0.03349
    15.90000    52.66315   285.26494     0.03350   127.33685    74.73506     0.03350
    16.00000    52.69105   285.47458     0.03352   127.30895    74.52542     0.03352
    16.10000    52.71929   285.68384     0.03353   127.28071    74.31616     0.03353
    16.20000    52.74787   285.89271     0.03355   127.25213    74.10729     0.03355
    16.30000    52.77678   286.10120     0.03357   127.22322    73.89880     0.03357
    16.40000    52.80603   286.30930     0.03358   127.19397    73.69070     0.03358
    16.50000    52.83560   286.51700     0.03360   127.16440    73.48300     0.03360
    16.60000    52.86551   286.72430     0.03362   127.13449    73.27570     0.03362
    16.70000    52.89573   286.93119     0.03363   127.10427    73.06881     0.03363
    16.80000    52.92628   287.13768     0.03365   127.07372    72.86232     0.03365
    16.90000    52.95716   287.34375     0.03367   127.04284    72.65625     0.03367
    17.00000    52.98835   287.54941     0.03369   127.01165    72.45059     0.03369
    17.10000    53.01985   287.75464     0.03371   126.98015    72.24536     0.03371
    17.20000    53.05167   287.95945     0.03373   126.94833    72.04055     0.03373
    17.30000    53.08380   288.16383     0.03374   126.91620    71.83617     0.03374
    17.40000    53.11624   288.36778     0.03376   126.88376    71.63222     0.03376
    17.50000    53.14898   288.57129     0.03378   126.85102    71.42871     0.03378
    17.60000    53.18203   288.77437     0.03380   126.81797    71.22563     0.03380
    17.70000    53.21537   288.97699     0.03382   126.78463    71.02301     0.03382
    17.80000    53.24902   289.17918     0.03384   126.75098    70.82082     0.03384
    17.90000    53.28296   289.38091     0.03387   126.71704    70.61909     0.03387
    18.00000    53.31719   289.58218     0.03389   126.68281    70.41782     0.03389
    18.10000    53.35172   289.78300     0.03391   126.64828    70.21700     0.03391
    18.20000    53.38653   289.98336     0.03393   126.61347    70.01664     0.03393
    18.30000    53.42162   290.18325     0.03395   126.57838    69.81675     0.03395
    18.40000    53.45700   290.38268     0.03397   126.54300    69.61732     0.03397
    18.50000    53.49266   290.58163     0.03400   126.50734    69.41837     0.03400
    18.60000    53.52860   290.78011     0.03402   126.47140    69.21989     0.03402
    18.70000    53.56481   290.97811     0.03404   126.43519    69.02189     0.03404
    18.80000    53.60129   291.17564     0.03406   126.39871    68.82436     0.03406
    18.90000    53.63805   291.37268     0.03409   126.36195    68.62732     0.03409
    19.00000    53.67506   291.56924     0.03411   126.32494    68.43076     0.03411
    19.10000    53.71235   291.76530     0.03414   126.28765    68.23470     0.03414
    19.20000    53.74989   291.96088     0.03416   126.25011    68.03912     0.03416
    19.30000    53.78769   292.15596     0.03419   126.21231    67.84404     0.03419
    19.40000    53.82575   292.35055     0.03421   126.17425    67.64945     0.03421
    19.50000    53.86406   292.54464     0.03424   126.13594    67.45536     0.03424
    19.60000    53.90262   292.73822     0.03426   126.09738    67.26178     0.03426
    19.70000    53.94143   292.93131     0.03429   126.05857    67.06869     0.03429
    19.80000    53.98049   293.12388     0.03431   126.01951    66.87612     0.03431
    19.90000    54.01979   293.31595     0.03434   125.98021    66.68405     0.03434
    20.00000    54.05932   293.50751     0.03436   125.94068    66.49249     0.03436
    20.10000    54.09910   293.69855     0.03439   125.90090    66.30145     0.03439
    20.20000    54.13910   293.88908     0.03442   125.86090    66.11092     0.03442
    20.30000    54.17934   294.07909     0.03445   125.82066    65.92091     0.03445
    20.40000    54.21981   294.26858     0.03447   125.78019    65.73142     0.03447
    20.50000    54.26050   294.45755     0.03450   125.73950    65.54245     0.03450
    20.60000    54.30142   294.64600     0.03453   125.69858    65.35400     0.03453
    20.70000    54.34256   294.83392     0.03456   125.65744    65.16608     0.03456
    20.80000    54.38391   295.02131     0.03459   125.61609    64.97869     0.03459
    20.90000    54.42548   295.20818     0.03461   125.57452    64.79182     0.03461
    21.00000    54.46727   295.39451     0.03464   125.53273    64.60549     0.03464
    21.10000    54.50926   295.58032     0.03467   125.49074    64.41968     0.03467
    21.20000    54.55146   295.76559     0.03470   125.44854    64.23441     0.03470
    21.30000    54.59386   295.95032     0.03473   125.40614    64.04968     0.03473
    21.40000    54.63647   296.13452     0.03476   125.36353    63.86548     0.03476
    21.50000    54.67927   296.31818     0.03479   125.32073    63.68182     0.03479
    21.60000    54.72227   296.50130     0.03482   125.27773    63.49870     0.03482
    21.70000    54.76547   296.68388     0.03485   125.23453    63.31612     0.03485
    21.80000    54.80885   296.86591     0.03489   125.19115    63.13409     0.03489
    21.90000    54.85242   297.04741     0.03492   125.14758    62.95259     0.03492
    22.00000    54.89618   297.22836     0.03495   125.10382    62.77164     0.03495
    22.10000    54.94012   297.40876     0.03498   125.05988    62.59124     0.03498
    22.20000    54.98424   297.58862     0.03501   125.01576    62.41138     0.03501
    22.30000    55.02854   297.76793     0.03504   124.97146    62.23207     0.03504
    22.40000    55.07301   297.94669     0.03508   124.92699    62.05331     0.03508
    22.50000    55.11766   298.12490     0.03511   124.88234    61.87510     0.03511
    22.60000    55.16247   298.30256     0.03514   124.83753    61.69744     0.03514
    22.70000    55.20745   298.47966     0.03518   124.79255    61.52034     0.03518
    22.80000    55.25260   298.65622     0.03521   124.74740    61.34378     0.03521
    22.90000    55.29790   298.83222     0.03524   124.70210    61.16778     0.03524
    23.00000    55.34337   299.00767     0.03528   124.65663    60.99233     0.03528
    23.10000    55.38899   299.18257     0.03531   124.61101    60.81743     0.03531
    23.20000    55.43477   299.35691     0.03535   124.56523    60.64309     0.03535
    23.30000    55.48069   299.53070     0.03538   124.51931    60.46930     0.03538
    23.40000    55.52677   299.70392     0.03542   124.47323    60.29608     0.03542
    23.50000    55.57299   299.87660     0.03545   124.42701    60.12340     0.03545
    23.60000    55.61936   300.04871     0.03549   124.38064    59.95129     0.03549
    23.70000    55.66586   300.22027     0.03552   124.33414    59.77973     0.03552
    23.80000    55.71251   300.39127     0.03556   124.28749    59.60873     0.03556
    23.90000    55.75929   300.56172     0.03560   124.24071    59.43828     0.03560
    24.00000    55.80620   300.73160     0.03563   124.19380    59.26840     0.03563
    24.10000    55.85325   300.90093     0.03567   124.14675    59.09907     0.03567
    24.20000    55.90042   301.06970     0.03571   124.09958    58.93030     0.03571
    24.30000    55.94772   301.23790     0.03574   124.05228    58.76210     0.03574
    24.40000    55.99514   301.40556     0.03578   124.00486    58.59444     0.03578
    24.50000    56.04269   301.57265     0.03582   123.95731    58.42735     0.03582
    24.60000    56.09035   301.73918     0.03585   123.90965    58.26082     0.03585
    24.70000    56.13813   301.90515     0.03589   123.86187    58.09485     0.03589
    24.80000    56.18602   302.07057     0.03593   123.81398    57.92943     0.03593
    24.90000    56.23403   302.23543     0.03597   123.76597    57.76457     0.03597
    25.00000    56.28214   302.39972     0.03601   123.71786    57.60028     0.03601
    25.10000    56.33036   302.56346     0.03605   123.66964    57.43654     0.03605
    25.20000    56.37869   302.72665     0.03609   123.62131    57.27335     0.03609
    25.30000    56.42712   302.88927     0.03613   123.57288    57.11073     0.03613
    25.40000    56.47564   303.05133     0.03617   123.52436    56.94867     0.03617
    25.50000    56.52427   303.21284     0.03621   123.47573    56.78716     0.03621
    25.60000    56.57299   303.37379     0.03625   123.42701    56.62621     0.03625
    25.70000    56.62180   303.53419     0.03629   123.37820    56.46581     0.03629
    25.80000    56.67070   303.69403     0.03633   123.32930    56.30597     0.03633
    25.90000    56.71970   303.85331     0.03637   123.28030    56.14669     0.03637
    26.00000    56.76877   304.01204     0.03641   123.23123    55.98796     0.03641
    26.10000    56.81794   304.17021     0.03645   123.18206    55.82979     0.03645
    26.20000    56.86718   304.32783     0.03649   123.13282    55.67217     0.03649
    26.30000    56.91650   304.48489     0.03653   123.08350    55.51511     0.03653
    26.40000    56.96590   304.64140     0.03657   123.03410    55.35860     0.03657
    26.50000    57.01538   304.79736     0.03662   122.98462    55.20264     0.03662
    26.60000    57.06493   304.95276     0.03666   122.93507    55.04724     0.03666
    26.70000    57.11455   305.10762     0.03670   122.88545    54.89238     0.03670
    26.80000    57.16423   305.26192     0.03674   122.83577    54.73808     0.03674
    26.90000    57.21399   305.41568     0.03679   122.78601    54.58432     0.03679
    27.00000    57.26381   305.56888     0.03683   122.73619    54.43112     0.03683
    27.10000    57.31369   305.72154     0.03687   122.68631    54.27846     0.03687
    27.20000    57.36363   305.87365     0.03691   122.63637    54.12635     0.03691
    27.30000    57.41364   306.02521     0.03696   122.58636    53.97479     0.03696
    27.40000    57.46369   306.17622     0.03700   122.53631    53.82378     0.03700
    27.50000    57.51381   306.32669     0.03705   122.48619    53.67331     0.03705
    27.60000    57.56397   306.47662     0.03709   122.43603    53.52338     0.03709
    27.70000    57.61419   306.62600     0.03713   122.38581    53.37400     0.03713
    27.80000    57.66445   306.77484     0.03718   122.33555    53.22516     0.03718
    27.90000    57.71476   306.92314     0.03722   122.28524    53.07686     0.03722
    28.00000    57.76512   307.07090     0.03727   122.23488    52.92910     0.03727
    28.10000    57.81552   307.21812     0.03731   122.18448    52.78188     0.03731
    28.20000    57.86595   307.36481     0.03736   122.13405    52.63519     0.03736
    28.30000    57.91643   307.51095     0.03741   122.08357    52.48905     0.03741
    28.40000    57.96695   307.65656     0.03745   122.03305    52.34344     0.03745
    28.50000    58.01750   307.80163     0.03750   121.98250    52.19837     0.03750
    28.60000    58.06808   307.94617     0.03754   121.93192    52.05383     0.03754
    28.70000    58.11870   308.09018     0.03759   121.88130    51.90982     0.03759
    28.80000    58.16935   308.23365     0.03764   121.83065    51.76635     0.03764
    28.90000    58.22002   308.37659     0.03768   121.77998    51.62341     0.03768
    29.00000    58.27072   308.51901     0.03773   121.72928    51.48099     0.03773
    29.10000    58.32145   308.66090     0.03778   121.67855    51.33910     0.03778
    29.20000    58.37220   308.80225     0.03783   121.62780    51.19775     0.03783
    29.30000    58.42297   308.94309     0.03787   121.57703    51.05691     0.03787
    29.40000    58.47376   309.08340     0.03792   121.52624    50.91660     0.03792
    29.50000    58.52457   309.22318     0.03797   121.47543    50.77682     0.03797
    29.60000    58.57539   309.36245     0.03802   121.42461    50.63755     0.03802
    29.70000    58.62623   309.50119     0.03806   121.37377    50.49881     0.03806
    29.80000    58.67708   309.63941     0.03811   121.32292    50.36059     0.03811
    29.90000    58.72795   309.77712     0.03816   121.27205    50.22288     0.03816
    30.00000    58.77882   309.91431     0.03821   121.22118    50.08569     0.03821
    30.10000    58.82970   310.05098     0.03826   121.17030    49.94902     0.03826
    30.20000    58.88059   310.18714     0.03831   121.11941    49.81286     0.03831
    30.30000    58.93148   310.32279     0.03836   121.06852    49.67721     0.03836
    30.40000    58.98238   310.45793     0.03841   121.01762    49.54207     0.03841
    30.50000    59.03328   310.59255     0.03846   120.96672    49.40745     0.03846
    30.60000    59.08418   310.72667     0.03851   120.91582    49.27333     0.03851
    30.70000    59.13508   310.86028     0.03856   120.86492    49.13972     0.03856
    30.80000    59.18597   310.99339     0.03861   120.81403    49.00661     0.03861
    30.90000    59.23687   311.12599     0.03866   120.76313    48.87401     0.03866
    31.00000    59.28775   311.25809     0.03871   120.71225    48.74191     0.03871
    31.10000    59.33864   311.38969     0.03876   120.66136    48.61031     0.03876
    31.20000    59.38951   311.52078     0.03881   120.61049    48.47922     0.03881
    31.30000    59.44037   311.65138     0.03886   120.55963    48.34862     0.03886
    31.40000    59.49123   311.78149     0.03891   120.50877    48.21851     0.03891
    31.50000    59.54207   311.91110     0.03897   120.45793    48.08890     0.03897
    31.60000    59.59290   312.04021     0.03902   120.40710    47.95979     0.03902
    31.70000    59.64371   312.16883     0.03907   120.35629    47.83117     0.03907
    31.80000    59.69451   312.29697     0.03912   120.30549    47.70303     0.03912
    31.90000    59.74529   312.42461     0.03917   120.25471    47.57539     0.03917
    32.00000    59.79605   312.55176     0.03923   120.20395    47.44824     0.03923
    32.10000    59.84679   312.67843     0.03928   120.15321    47.32157     0.03928
    32.20000    59.89751   312.80462     0.03933   120.10249    47.19538     0.03933
    32.30000    59.94821   312.93032     0.03938   120.05179    47.06968     0.03938
    32.40000    59.99888   313.05554     0.03944   120.00112    46.94446     0.03944
    32.50000    60.04953   313.18028     0.03949   119.95047    46.81972     0.03949
    32.60000    60.10015   313.30455     0.03954   119.89985    46.69545     0.03954
    32.70000    60.15075   313.42833     0.03960   119.84925    46.57167     0.03960
    32.80000    60.20132   313.55164     0.03965   119.79868    46.44836     0.03965
    32.90000    60.25186   313.67448     0.03970   119.74814    46.32552     0.03970
    33.00000    60.30237   313.79685     0.03976   119.69763    46.20315     0.03976
    33.10000    60.35284   313.91875     0.03981   119.64716    46.08125     0.03981
    33.20000    60.40329   314.04017     0.03987   119.59671    45.95983     0.03987
    33.30000    60.45370   314.16114     0.03992   119.54630    45.83886     0.03992
    33.40000    60.50407   314.28163     0.03998   119.49593    45.71837     0.03998
    33.50000    60.55441   314.40167     0.04003   119.44559    45.59833     0.04003
    33.60000    60.60472   314.52124     0.04009   119.39528    45.47876     0.04009
    33.70000    60.65498   314.64035     0.04014   119.34502    45.35965     0.04014
    33.80000    60.70521   314.75900     0.04020   119.29479    45.24100     0.04020
    33.90000    60.75539   314.87719     0.04025   119.24461    45.12281     0.04025
    34.00000    60.80554   314.99493     0.04031   119.19446    45.00507     0.04031
    34.10000    60.85564   315.11222     0.04036   119.14436    44.88778     0.04036
    34.20000    60.90570   315.22905     0.04042   119.09430    44.77095     0.04042
    34.30000    60.95572   315.34544     0.04047   119.04428    44.65456     0.04047
    34.40000    61.00569   315.46137     0.04053   118.99431    44.53863     0.04053
    34.50000    61.05561   315.57686     0.04059   118.94439    44.42314     0.04059
    34.60000    61.10549   315.69190     0.04064   118.89451    44.30810     0.04064
    34.70000    61.15532   315.80650     0.04070   118.84468    44.19350     0.04070
    34.80000    61.20510   315.92066     0.04076   118.79490    44.07934     0.04076
    34.90000    61.25484   316.03437     0.04081   118.74516    43.96563     0.04081
    35.00000    61.30452   316.14765     0.04087   118.69548    43.85235     0.04087
    35.10000    61.35415   316.26049     0.04093   118.64585    43.73951     0.04093
    35.20000    61.40373   316.37289     0.04099   118.59627    43.62711     0.04099
    35.30000    61.45326   316.48487     0.04104   118.54674    43.51513     0.04104
    35.40000    61.50274   316.59640     0.04110   118.49726    43.40360     0.04110
    35.50000    61.55216   316.70751     0.04116   118.44784    43.29249     0.04116
    35.60000    61.60152   316.81819     0.04122   118.39848    43.18181     0.04122
    35.70000    61.65083   316.92844     0.04127   118.34917    43.07156     0.04127
    35.80000    61.70008   317.03827     0.04133   118.29992    42.96173     0.04133
    35.90000    61.74928   317.14767     0.04139   118.25072    42.85233     0.04139
    36.00000    61.79842   317.25666     0.04145   118.20158    42.74334     0.04145
    36.10000    61.84750   317.36522     0.04151   118.15250    42.63478     0.04151
    36.20000    61.89652   317.47336     0.04157   118.10348    42.52664     0.04157
    36.30000    61.94547   317.58108     0.04163   118.05453    42.41892     0.04163
    36.40000    61.99437   317.68839     0.04169   118.00563    42.31161     0.04169
    36.50000    62.04321   317.79529     0.04174   117.95679    42.20471     0.04174
    36.60000    62.09198   317.90177     0.04180   117.90802    42.09823     0.04180
    36.70000    62.14070   318.00784     0.04186   117.85930    41.99216     0.04186
    36.80000    62.18934   318.11351     0.04192   117.81066    41.88649     0.04192
    36.90000    62.23793   318.21877     0.04198   117.76207    41.78123     0.04198
    37.00000    62.28645   318.32362     0.04204   117.71355    41.67638     0.04204
    37.10000    62.33490   318.42806     0.04210   117.66510    41.57194     0.04210
    37.20000    62.38329   318.53211     0.04216   117.61671    41.46789     0.04216
    37.30000    62.43161   318.63576     0.04222   117.56839    41.36424     0.04222
    37.40000    62.47986   318.73900     0.04228   117.52014    41.26100     0.04228
    37.50000    62.52805   318.84185     0.04234   117.47195    41.15815     0.04234
    37.60000    62.57617   318.94430     0.04240   117.42383    41.05570     0.04240
    37.70000    62.62422   319.04636     0.04246   117.37578    40.95364     0.04246
    37.80000    62.67220   319.14803     0.04253   117.32780    40.85197     0.04253
    37.90000    62.72011   319.24930     0.04259   117.27989    40.75070     0.04259
    38.00000    62.76795   319.35019     0.04265   117.23205    40.64981     0.04265
    38.10000    62.81571   319.45069     0.04271   117.18429    40.54931     0.04271
    38.20000    62.86341   319.55080     0.04277   117.13659    40.44920     0.04277
    38.30000    62.91104   319.65053     0.04283   117.08896    40.34947     0.04283
    38.40000    62.95859   319.74988     0.04289   117.04141    40.25012     0.04289
    38.50000    63.00607   319.84885     0.04296   116.99393    40.15115     0.04296
    38.60000    63.05347   319.94743     0.04302   116.94653    40.05257     0.04302
    38.70000    63.10081   320.04564     0.04308   116.89919    39.95436     0.04308
    38.80000    63.14806   320.14347     0.04314   116.85194    39.85653     0.04314
    38.90000    63.19525   320.24093     0.04320   116.80475    39.75907     0.04320
    39.00000    63.24236   320.33802     0.04327   116.75764    39.66198     0.04327
    39.10000    63.28939   320.43473     0.04333   116.71061    39.56527     0.04333
    39.20000    63.33634   320.53107     0.04339   116.66366    39.46893     0.04339
    39.30000    63.38322   320.62705     0.04345   116.61678    39.37295     0.04345
    39.40000    63.43003   320.72266     0.04352   116.56997    39.27734     0.04352
    39.50000    63.47675   320.81790     0.04358   116.52325    39.18210     0.04358
    39.60000    63.52340   320.91278     0.04364   116.47660    39.08722     0.04364
    39.70000    63.56997   321.00730     0.04371   116.43003    38.99270     0.04371
    39.80000    63.61646   321.10146     0.04377   116.38354    38.89854     0.04377
    39.90000    63.66288   321.19525     0.04383   116.33712    38.80475     0.04383
    40.00000    63.70921   321.28870     0.04390   116.29079    38.71130     0.04390
