 # applied field (T), theta (degree), phi (degree), abs [muB/unitcell], abs [T]
       0.00000000       0.00000000       0.00000000      48.15887480       1.65711996
       0.10000000       0.74246328     360.00000000      48.15943839       1.65713936
       0.20000000       1.42785911     360.00000000      48.15991309       1.65715569
       0.30000000       2.17032638     360.00000000      48.16037682       1.65717165
       0.40000000       2.91280085     360.00000000      48.16078872       1.65718582
       0.50000000       3.59821599     360.00000000      48.16112441       1.65719737
       0.60000000       4.34071403     360.00000000      48.16143759       1.65720815
       0.70000000       5.08322938     360.00000000      48.16169988       1.65721717
       0.80000000       5.76869097     360.00000000      48.16189915       1.65722403
       0.90000000       6.51124903     360.00000000      48.16206527       1.65722975
       1.00000000       7.25383419     360.00000000      48.16218218       1.65723377
       1.10000000       7.99644970     360.00000000      48.16225062       1.65723612
       1.20000000       8.73909878     360.00000000      48.16227138       1.65723684
       1.30000000       9.48178457     360.00000000      48.16224534       1.65723594
       1.40000000      10.22451015     360.00000000      48.16217345       1.65723347
       1.50000000      11.02437253     360.00000000      48.16204264       1.65722897
       1.60000000      11.76719044     360.00000000      48.16187865       1.65722332
       1.70000000      12.51005721     360.00000000      48.16167215       1.65721622
       1.80000000      13.31008186     360.00000000      48.16139970       1.65720684
       1.90000000      14.11017007     360.00000000      48.16108049       1.65719586
       2.00000000      14.85320908     360.00000000      48.16074764       1.65718441
       2.10000000      15.65342888     360.00000000      48.16034314       1.65717049
       2.20000000      16.45372151     360.00000000      48.15989686       1.65715513
       2.30000000      17.31122229     360.00000000      48.15936981       1.65713700
       2.40000000      18.11167504     360.00000000      48.15884256       1.65711885
       2.50000000      18.96935396     360.00000000      48.15823265       1.65709787
       2.60000000      19.76997816     360.00000000      48.15763247       1.65707722
       2.70000000      20.68500515     360.00000000      48.15689658       1.65705189
       2.80000000      21.54298296     360.00000000      48.15617517       1.65702707
       2.90000000      22.40106560     360.00000000      48.15542136       1.65700113
       3.00000000      23.31643607     360.00000000      48.15457871       1.65697214
       3.10000000      24.23193128     360.00000000      48.15370438       1.65694205
       3.20000000      25.20475096     360.00000000      48.15273830       1.65690881
       3.30000000      26.12051016     360.00000000      48.15180734       1.65687678
       3.40000000      27.15083008     360.00000000      48.15072059       1.65683938
       3.50000000      28.12409279     360.00000000      48.14967536       1.65680342
       3.60000000      29.15473992       0.00000000      48.14854083       1.65676438
       3.70000000      30.24280117     360.00000000      48.14731645       1.65672225
       3.80000000      31.33105222     360.00000000      48.14607388       1.65667949
       3.90000000      32.47675803     360.00000000      48.14474446       1.65663375
       4.00000000      33.67994947     360.00000000      48.14332949       1.65658506
       4.10000000      34.88336923     360.00000000      48.14190452       1.65653603
       4.20000000      36.14431291     360.00000000      48.14039939       1.65648424
       4.30000000      37.46280936     360.00000000      48.13881680       1.65642978
       4.40000000      38.89620935     360.00000000      48.13708565       1.65637021
       4.50000000      40.38723901     360.00000000      48.13528379       1.65630821
       4.60000000      41.93592025     360.00000000      48.13341532       1.65624392
       4.70000000      43.65699132     360.00000000      48.13133712       1.65617241
       4.80000000      45.49316377     360.00000000      48.12912911       1.65609643
       4.90000000      47.50185999     360.00000000      48.12672483       1.65601370
       5.00000000      49.74053553     360.00000000      48.12406077       1.65592203
       5.10000000      52.32407720     360.00000000      48.12100627       1.65581693
       5.20000000      55.30999755     360.00000000      48.11750869       1.65569658
       5.30000000      59.04291823     360.00000000      48.11317683       1.65554752
       5.40000000      64.21211821     360.00000000      48.10724212       1.65534331
       5.50000000      73.74672214     360.00000000      48.09639533       1.65497008
       5.60000000      90.00000000     360.00000000      48.07802644       1.65433802
       5.70000000      90.00000000     360.00000000      48.07822903       1.65434499
       5.80000000      90.00000000     360.00000000      48.07843159       1.65435196
       5.90000000      90.00000000     360.00000000      48.07863412       1.65435893
       6.00000000      90.00000000     360.00000000      48.07883663       1.65436590
       6.10000000      90.00000000     360.00000000      48.07903911       1.65437286
       6.20000000      90.00000000     360.00000000      48.07924156       1.65437983
       6.30000000      90.00000000     360.00000000      48.07944398       1.65438679
       6.40000000      90.00000000     360.00000000      48.07964637       1.65439376
       6.50000000      90.00000000     360.00000000      48.07984874       1.65440072
       6.60000000      90.00000000     360.00000000      48.08005108       1.65440768
       6.70000000      90.00000000     360.00000000      48.08025339       1.65441464
       6.80000000      90.00000000     360.00000000      48.08045567       1.65442161
       6.90000000      90.00000000     360.00000000      48.08065793       1.65442856
       7.00000000      90.00000000     360.00000000      48.08086016       1.65443552
       7.10000000      90.00000000     360.00000000      48.08106236       1.65444248
       7.20000000      90.00000000     360.00000000      48.08126453       1.65444944
       7.30000000      90.00000000     360.00000000      48.08146667       1.65445639
       7.40000000      90.00000000     360.00000000      48.08166879       1.65446335
       7.50000000      90.00000000     360.00000000      48.08187088       1.65447030
       7.60000000      90.00000000     360.00000000      48.08207294       1.65447725
       7.70000000      90.00000000     360.00000000      48.08227497       1.65448421
       7.80000000      90.00000000     360.00000000      48.08247698       1.65449116
       7.90000000      90.00000000     360.00000000      48.08267896       1.65449811
       8.00000000      90.00000000     360.00000000      48.08288091       1.65450506
       8.10000000      90.00000000     360.00000000      48.08308283       1.65451200
       8.20000000      90.00000000     360.00000000      48.08328472       1.65451895
       8.30000000      90.00000000     360.00000000      48.08348659       1.65452590
       8.40000000      90.00000000     360.00000000      48.08368843       1.65453284
       8.50000000      90.00000000     360.00000000      48.08389024       1.65453979
       8.60000000      90.00000000     360.00000000      48.08409203       1.65454673
       8.70000000      90.00000000     360.00000000      48.08429379       1.65455367
       8.80000000      90.00000000     360.00000000      48.08449552       1.65456061
       8.90000000      90.00000000     360.00000000      48.08469722       1.65456755
       9.00000000      90.00000000     360.00000000      48.08489889       1.65457449
       9.10000000      90.00000000     360.00000000      48.08510054       1.65458143
       9.20000000      90.00000000     360.00000000      48.08530216       1.65458837
       9.30000000      90.00000000     360.00000000      48.08550375       1.65459531
       9.40000000      90.00000000     360.00000000      48.08570531       1.65460224
       9.50000000      90.00000000     360.00000000      48.08590685       1.65460918
       9.60000000      90.00000000     360.00000000      48.08610836       1.65461611
       9.70000000      90.00000000     360.00000000      48.08630984       1.65462304
       9.80000000      90.00000000     360.00000000      48.08651130       1.65462998
       9.90000000      90.00000000     360.00000000      48.08671272       1.65463691
      10.00000000      90.00000000     360.00000000      48.08691412       1.65464384
      10.10000000      90.00000000     360.00000000      48.08711549       1.65465077
      10.20000000      90.00000000     360.00000000      48.08731684       1.65465769
      10.30000000      90.00000000     360.00000000      48.08751815       1.65466462
      10.40000000      90.00000000     360.00000000      48.08771944       1.65467155
      10.50000000      90.00000000     360.00000000      48.08792071       1.65467847
      10.60000000      90.00000000     360.00000000      48.08812194       1.65468540
      10.70000000      90.00000000     360.00000000      48.08832315       1.65469232
      10.80000000      90.00000000     360.00000000      48.08852433       1.65469924
      10.90000000      90.00000000     360.00000000      48.08872548       1.65470616
      11.00000000      90.00000000     360.00000000      48.08892661       1.65471309
      11.10000000      90.00000000     360.00000000      48.08912770       1.65472001
      11.20000000      90.00000000     360.00000000      48.08932878       1.65472692
      11.30000000      90.00000000     360.00000000      48.08952982       1.65473384
      11.40000000      90.00000000     360.00000000      48.08973083       1.65474076
      11.50000000      90.00000000     360.00000000      48.08993182       1.65474767
      11.60000000      90.00000000     360.00000000      48.09013278       1.65475459
      11.70000000      90.00000000     360.00000000      48.09033372       1.65476150
      11.80000000      90.00000000     360.00000000      48.09053462       1.65476842
      11.90000000      90.00000000     360.00000000      48.09073550       1.65477533
      12.00000000      90.00000000     360.00000000      48.09093636       1.65478224
      12.10000000      90.00000000     360.00000000      48.09113718       1.65478915
      12.20000000      90.00000000     360.00000000      48.09133798       1.65479606
      12.30000000      90.00000000     360.00000000      48.09153875       1.65480297
      12.40000000      90.00000000     360.00000000      48.09173949       1.65480988
      12.50000000      90.00000000     360.00000000      48.09194021       1.65481678
      12.60000000      90.00000000     360.00000000      48.09214090       1.65482369
      12.70000000      90.00000000     360.00000000      48.09234156       1.65483059
      12.80000000      90.00000000     360.00000000      48.09254219       1.65483750
      12.90000000      90.00000000     360.00000000      48.09274280       1.65484440
      13.00000000      90.00000000     360.00000000      48.09294338       1.65485130
      13.10000000      90.00000000     360.00000000      48.09314393       1.65485820
      13.20000000      90.00000000     360.00000000      48.09334446       1.65486510
      13.30000000      90.00000000     360.00000000      48.09354496       1.65487200
      13.40000000      90.00000000     360.00000000      48.09374543       1.65487890
      13.50000000      90.00000000     360.00000000      48.09394588       1.65488580
      13.60000000      90.00000000     360.00000000      48.09414629       1.65489269
      13.70000000      90.00000000     360.00000000      48.09434668       1.65489959
      13.80000000      90.00000000     360.00000000      48.09454705       1.65490648
      13.90000000      90.00000000     360.00000000      48.09474738       1.65491338
      14.00000000      90.00000000     360.00000000      48.09494769       1.65492027
      14.10000000      90.00000000     360.00000000      48.09514797       1.65492716
      14.20000000      90.00000000     360.00000000      48.09534823       1.65493405
      14.30000000      90.00000000     360.00000000      48.09554846       1.65494094
      14.40000000      90.00000000     360.00000000      48.09574866       1.65494783
      14.50000000      90.00000000     360.00000000      48.09594883       1.65495472
      14.60000000      90.00000000     360.00000000      48.09614898       1.65496160
      14.70000000      90.00000000     360.00000000      48.09634910       1.65496849
      14.80000000      90.00000000     360.00000000      48.09654919       1.65497537
      14.90000000      90.00000000     360.00000000      48.09674926       1.65498226
      15.00000000      90.00000000     360.00000000      48.09694930       1.65498914
      15.10000000      90.00000000     360.00000000      48.09714931       1.65499602
      15.20000000      90.00000000     360.00000000      48.09734930       1.65500291
      15.30000000      90.00000000     360.00000000      48.09754926       1.65500979
      15.40000000      90.00000000     360.00000000      48.09774919       1.65501667
      15.50000000      90.00000000     360.00000000      48.09794909       1.65502354
      15.60000000      90.00000000     360.00000000      48.09814897       1.65503042
      15.70000000      90.00000000     360.00000000      48.09834882       1.65503730
      15.80000000      90.00000000     360.00000000      48.09854864       1.65504417
      15.90000000      90.00000000     360.00000000      48.09874844       1.65505105
      16.00000000      90.00000000     360.00000000      48.09894821       1.65505792
      16.10000000      90.00000000     360.00000000      48.09914795       1.65506480
      16.20000000      90.00000000     360.00000000      48.09934767       1.65507167
      16.30000000      90.00000000     360.00000000      48.09954736       1.65507854
      16.40000000      90.00000000     360.00000000      48.09974702       1.65508541
      16.50000000      90.00000000     360.00000000      48.09994666       1.65509228
      16.60000000      90.00000000     360.00000000      48.10014627       1.65509915
      16.70000000      90.00000000     360.00000000      48.10034585       1.65510602
      16.80000000      90.00000000     360.00000000      48.10054541       1.65511288
      16.90000000      90.00000000     360.00000000      48.10074494       1.65511975
      17.00000000      90.00000000     360.00000000      48.10094444       1.65512661
      17.10000000      90.00000000     360.00000000      48.10114391       1.65513348
      17.20000000      90.00000000     360.00000000      48.10134336       1.65514034
      17.30000000      90.00000000     360.00000000      48.10154279       1.65514720
      17.40000000      90.00000000     360.00000000      48.10174218       1.65515406
      17.50000000      90.00000000     360.00000000      48.10194155       1.65516092
      17.60000000      90.00000000     360.00000000      48.10214089       1.65516778
      17.70000000      90.00000000     360.00000000      48.10234021       1.65517464
      17.80000000      90.00000000     360.00000000      48.10253950       1.65518150
      17.90000000      90.00000000     360.00000000      48.10273876       1.65518835
      18.00000000      90.00000000     360.00000000      48.10293799       1.65519521
      18.10000000      90.00000000     360.00000000      48.10313720       1.65520206
      18.20000000      90.00000000     360.00000000      48.10333638       1.65520892
      18.30000000      90.00000000     360.00000000      48.10353554       1.65521577
      18.40000000      90.00000000     360.00000000      48.10373467       1.65522262
      18.50000000      90.00000000     360.00000000      48.10393377       1.65522947
      18.60000000      90.00000000     360.00000000      48.10413285       1.65523632
      18.70000000      90.00000000     360.00000000      48.10433190       1.65524317
      18.80000000      90.00000000     360.00000000      48.10453092       1.65525002
      18.90000000      90.00000000     360.00000000      48.10472991       1.65525687
      19.00000000      90.00000000     360.00000000      48.10492888       1.65526371
      19.10000000      90.00000000     360.00000000      48.10512783       1.65527056
      19.20000000      90.00000000     360.00000000      48.10532674       1.65527741
      19.30000000      90.00000000     360.00000000      48.10552563       1.65528425
      19.40000000      90.00000000     360.00000000      48.10572450       1.65529109
      19.50000000      90.00000000     360.00000000      48.10592333       1.65529793
      19.60000000      90.00000000     360.00000000      48.10612214       1.65530477
      19.70000000      90.00000000     360.00000000      48.10632093       1.65531161
      19.80000000      90.00000000     360.00000000      48.10651968       1.65531845
      19.90000000      90.00000000     360.00000000      48.10671842       1.65532529
      20.00000000      90.00000000     360.00000000      48.10691712       1.65533213
      20.10000000      90.00000000     360.00000000      48.10711580       1.65533897
      20.20000000      90.00000000     360.00000000      48.10731445       1.65534580
      20.30000000      90.00000000     360.00000000      48.10751308       1.65535264
      20.40000000      90.00000000     360.00000000      48.10771167       1.65535947
      20.50000000      90.00000000     360.00000000      48.10791025       1.65536630
      20.60000000      90.00000000     360.00000000      48.10810879       1.65537313
      20.70000000      90.00000000     360.00000000      48.10830731       1.65537996
      20.80000000      90.00000000     360.00000000      48.10850581       1.65538679
      20.90000000      90.00000000     360.00000000      48.10870427       1.65539362
      21.00000000      90.00000000     360.00000000      48.10890271       1.65540045
      21.10000000      90.00000000     360.00000000      48.10910113       1.65540728
      21.20000000      90.00000000     360.00000000      48.10929952       1.65541411
      21.30000000      90.00000000     360.00000000      48.10949788       1.65542093
      21.40000000      90.00000000     360.00000000      48.10969621       1.65542776
      21.50000000      90.00000000     360.00000000      48.10989452       1.65543458
      21.60000000      90.00000000     360.00000000      48.11009280       1.65544140
      21.70000000      90.00000000     360.00000000      48.11029106       1.65544822
      21.80000000      90.00000000     360.00000000      48.11048929       1.65545505
      21.90000000      90.00000000     360.00000000      48.11068749       1.65546187
      22.00000000      90.00000000     360.00000000      48.11088567       1.65546868
      22.10000000      90.00000000     360.00000000      48.11108382       1.65547550
      22.20000000      90.00000000     360.00000000      48.11128195       1.65548232
      22.30000000      90.00000000     360.00000000      48.11148005       1.65548914
      22.40000000      90.00000000     360.00000000      48.11167812       1.65549595
      22.50000000      90.00000000     360.00000000      48.11187617       1.65550277
      22.60000000      90.00000000     360.00000000      48.11207419       1.65550958
      22.70000000      90.00000000     360.00000000      48.11227218       1.65551639
      22.80000000      90.00000000     360.00000000      48.11247015       1.65552321
      22.90000000      90.00000000     360.00000000      48.11266809       1.65553002
      23.00000000      90.00000000     360.00000000      48.11286601       1.65553683
      23.10000000      90.00000000     360.00000000      48.11306390       1.65554364
      23.20000000      90.00000000     360.00000000      48.11326176       1.65555044
      23.30000000      90.00000000     360.00000000      48.11345960       1.65555725
      23.40000000      90.00000000     360.00000000      48.11365741       1.65556406
      23.50000000      90.00000000     360.00000000      48.11385520       1.65557086
      23.60000000      90.00000000     360.00000000      48.11405295       1.65557767
      23.70000000      90.00000000     360.00000000      48.11425069       1.65558447
      23.80000000      90.00000000     360.00000000      48.11444839       1.65559128
      23.90000000      90.00000000     360.00000000      48.11464608       1.65559808
      24.00000000      90.00000000     360.00000000      48.11484373       1.65560488
      24.10000000      90.00000000     360.00000000      48.11504136       1.65561168
      24.20000000      90.00000000     360.00000000      48.11523896       1.65561848
      24.30000000      90.00000000     360.00000000      48.11543654       1.65562528
      24.40000000      90.00000000     360.00000000      48.11563409       1.65563208
      24.50000000      90.00000000     360.00000000      48.11583162       1.65563887
      24.60000000      90.00000000     360.00000000      48.11602911       1.65564567
      24.70000000      90.00000000     360.00000000      48.11622659       1.65565246
      24.80000000      90.00000000     360.00000000      48.11642403       1.65565926
      24.90000000      90.00000000     360.00000000      48.11662145       1.65566605
      25.00000000      90.00000000     360.00000000      48.11681885       1.65567284
      25.10000000      90.00000000     360.00000000      48.11701622       1.65567963
      25.20000000      90.00000000     360.00000000      48.11721356       1.65568642
      25.30000000      90.00000000     360.00000000      48.11741088       1.65569321
      25.40000000      90.00000000     360.00000000      48.11760817       1.65570000
      25.50000000      90.00000000     360.00000000      48.11780544       1.65570679
      25.60000000      90.00000000     360.00000000      48.11800268       1.65571358
      25.70000000      90.00000000     360.00000000      48.11819989       1.65572036
      25.80000000      90.00000000     360.00000000      48.11839708       1.65572715
      25.90000000      90.00000000     360.00000000      48.11859424       1.65573393
      26.00000000      90.00000000     360.00000000      48.11879138       1.65574072
      26.10000000      90.00000000     360.00000000      48.11898849       1.65574750
      26.20000000      90.00000000     360.00000000      48.11918557       1.65575428
      26.30000000      90.00000000     360.00000000      48.11938263       1.65576106
      26.40000000      90.00000000     360.00000000      48.11957966       1.65576784
      26.50000000      90.00000000     360.00000000      48.11977667       1.65577462
      26.60000000      90.00000000     360.00000000      48.11997365       1.65578140
      26.70000000      90.00000000     360.00000000      48.12017061       1.65578817
      26.80000000      90.00000000     360.00000000      48.12036754       1.65579495
      26.90000000      90.00000000     360.00000000      48.12056444       1.65580173
      27.00000000      90.00000000     360.00000000      48.12076132       1.65580850
      27.10000000      90.00000000     360.00000000      48.12095817       1.65581527
      27.20000000      90.00000000     360.00000000      48.12115500       1.65582205
      27.30000000      90.00000000     360.00000000      48.12135180       1.65582882
      27.40000000      90.00000000     360.00000000      48.12154857       1.65583559
      27.50000000      90.00000000     360.00000000      48.12174532       1.65584236
      27.60000000      90.00000000     360.00000000      48.12194205       1.65584913
      27.70000000      90.00000000     360.00000000      48.12213875       1.65585590
      27.80000000      90.00000000     360.00000000      48.12233542       1.65586266
      27.90000000      90.00000000     360.00000000      48.12253207       1.65586943
      28.00000000      90.00000000     360.00000000      48.12272869       1.65587620
      28.10000000      90.00000000     360.00000000      48.12292528       1.65588296
      28.20000000      90.00000000     360.00000000      48.12312185       1.65588972
      28.30000000      90.00000000     360.00000000      48.12331840       1.65589649
      28.40000000      90.00000000     360.00000000      48.12351492       1.65590325
      28.50000000      90.00000000     360.00000000      48.12371141       1.65591001
      28.60000000      90.00000000     360.00000000      48.12390788       1.65591677
      28.70000000      90.00000000     360.00000000      48.12410432       1.65592353
      28.80000000      90.00000000     360.00000000      48.12430074       1.65593029
      28.90000000      90.00000000     360.00000000      48.12449713       1.65593705
      29.00000000      90.00000000     360.00000000      48.12469349       1.65594380
      29.10000000      90.00000000     360.00000000      48.12488983       1.65595056
      29.20000000      90.00000000     360.00000000      48.12508615       1.65595732
      29.30000000      90.00000000     360.00000000      48.12528244       1.65596407
      29.40000000      90.00000000     360.00000000      48.12547870       1.65597082
      29.50000000      90.00000000     360.00000000      48.12567494       1.65597758
      29.60000000      90.00000000     360.00000000      48.12587115       1.65598433
      29.70000000      90.00000000     360.00000000      48.12606734       1.65599108
      29.80000000      90.00000000     360.00000000      48.12626350       1.65599783
      29.90000000      90.00000000     360.00000000      48.12645963       1.65600458
      30.00000000      90.00000000     360.00000000      48.12665574       1.65601132
      30.10000000      90.00000000     360.00000000      48.12685183       1.65601807
      30.20000000      90.00000000     360.00000000      48.12704789       1.65602482
      30.30000000      90.00000000     360.00000000      48.12724392       1.65603156
      30.40000000      90.00000000     360.00000000      48.12743993       1.65603831
      30.50000000      90.00000000     360.00000000      48.12763592       1.65604505
      30.60000000      90.00000000     360.00000000      48.12783187       1.65605179
      30.70000000      90.00000000     360.00000000      48.12802781       1.65605854
      30.80000000      90.00000000     360.00000000      48.12822371       1.65606528
      30.90000000      90.00000000     360.00000000      48.12841960       1.65607202
      31.00000000      90.00000000     360.00000000      48.12861545       1.65607876
      31.10000000      90.00000000     360.00000000      48.12881128       1.65608550
      31.20000000      90.00000000     360.00000000      48.12900709       1.65609223
      31.30000000      90.00000000     360.00000000      48.12920287       1.65609897
      31.40000000      90.00000000     360.00000000      48.12939863       1.65610571
      31.50000000      90.00000000     360.00000000      48.12959436       1.65611244
      31.60000000      90.00000000     360.00000000      48.12979006       1.65611917
      31.70000000      90.00000000     360.00000000      48.12998574       1.65612591
      31.80000000      90.00000000     360.00000000      48.13018140       1.65613264
      31.90000000      90.00000000     360.00000000      48.13037703       1.65613937
      32.00000000      90.00000000     360.00000000      48.13057263       1.65614610
      32.10000000      90.00000000     360.00000000      48.13076821       1.65615283
      32.20000000      90.00000000     360.00000000      48.13096376       1.65615956
      32.30000000      90.00000000     360.00000000      48.13115929       1.65616629
      32.40000000      90.00000000     360.00000000      48.13135479       1.65617302
      32.50000000      90.00000000     360.00000000      48.13155027       1.65617974
      32.60000000      90.00000000     360.00000000      48.13174572       1.65618647
      32.70000000      90.00000000     360.00000000      48.13194115       1.65619319
      32.80000000      90.00000000     360.00000000      48.13213655       1.65619992
      32.90000000      90.00000000     360.00000000      48.13233193       1.65620664
      33.00000000      90.00000000     360.00000000      48.13252728       1.65621336
      33.10000000      90.00000000     360.00000000      48.13272261       1.65622008
      33.20000000      90.00000000     360.00000000      48.13291791       1.65622680
      33.30000000      90.00000000     360.00000000      48.13311319       1.65623352
      33.40000000      90.00000000     360.00000000      48.13330844       1.65624024
      33.50000000      90.00000000     360.00000000      48.13350366       1.65624696
      33.60000000      90.00000000     360.00000000      48.13369887       1.65625367
      33.70000000      90.00000000     360.00000000      48.13389404       1.65626039
      33.80000000      90.00000000     360.00000000      48.13408919       1.65626710
      33.90000000      90.00000000     360.00000000      48.13428432       1.65627382
      34.00000000      90.00000000     360.00000000      48.13447942       1.65628053
      34.10000000      90.00000000     360.00000000      48.13467450       1.65628724
      34.20000000      90.00000000     360.00000000      48.13486955       1.65629396
      34.30000000      90.00000000     360.00000000      48.13506457       1.65630067
      34.40000000      90.00000000     360.00000000      48.13525957       1.65630738
      34.50000000      90.00000000     360.00000000      48.13545455       1.65631409
      34.60000000      90.00000000     360.00000000      48.13564950       1.65632079
      34.70000000      90.00000000     360.00000000      48.13584443       1.65632750
      34.80000000      90.00000000     360.00000000      48.13603933       1.65633421
      34.90000000      90.00000000     360.00000000      48.13623420       1.65634091
      35.00000000      90.00000000     360.00000000      48.13642905       1.65634762
      35.10000000      90.00000000     360.00000000      48.13662388       1.65635432
      35.20000000      90.00000000     360.00000000      48.13681868       1.65636103
      35.30000000      90.00000000     360.00000000      48.13701346       1.65636773
      35.40000000      90.00000000     360.00000000      48.13720821       1.65637443
      35.50000000      90.00000000     360.00000000      48.13740294       1.65638113
      35.60000000      90.00000000     360.00000000      48.13759764       1.65638783
      35.70000000      90.00000000     360.00000000      48.13779232       1.65639453
      35.80000000      90.00000000     360.00000000      48.13798697       1.65640123
      35.90000000      90.00000000     360.00000000      48.13818159       1.65640792
      36.00000000      90.00000000     360.00000000      48.13837620       1.65641462
      36.10000000      90.00000000     360.00000000      48.13857077       1.65642131
      36.20000000      90.00000000     360.00000000      48.13876533       1.65642801
      36.30000000      90.00000000     360.00000000      48.13895985       1.65643470
      36.40000000      90.00000000     360.00000000      48.13915436       1.65644139
      36.50000000      90.00000000     360.00000000      48.13934883       1.65644809
      36.60000000      90.00000000     360.00000000      48.13954329       1.65645478
      36.70000000      90.00000000     360.00000000      48.13973772       1.65646147
      36.80000000      90.00000000     360.00000000      48.13993212       1.65646816
      36.90000000      90.00000000     360.00000000      48.14012650       1.65647485
      37.00000000      90.00000000     360.00000000      48.14032085       1.65648153
      37.10000000      90.00000000     360.00000000      48.14051518       1.65648822
      37.20000000      90.00000000     360.00000000      48.14070949       1.65649491
      37.30000000      90.00000000     360.00000000      48.14090377       1.65650159
      37.40000000      90.00000000     360.00000000      48.14109802       1.65650827
      37.50000000      90.00000000     360.00000000      48.14129225       1.65651496
      37.60000000      90.00000000     360.00000000      48.14148646       1.65652164
      37.70000000      90.00000000     360.00000000      48.14168064       1.65652832
      37.80000000      90.00000000     360.00000000      48.14187480       1.65653500
      37.90000000      90.00000000     360.00000000      48.14206893       1.65654168
      38.00000000      90.00000000     360.00000000      48.14226304       1.65654836
      38.10000000      90.00000000     360.00000000      48.14245712       1.65655504
      38.20000000      90.00000000     360.00000000      48.14265118       1.65656172
      38.30000000      90.00000000     360.00000000      48.14284521       1.65656839
      38.40000000      90.00000000     360.00000000      48.14303922       1.65657507
      38.50000000      90.00000000     360.00000000      48.14323320       1.65658175
      38.60000000      90.00000000     360.00000000      48.14342716       1.65658842
      38.70000000      90.00000000     360.00000000      48.14362110       1.65659509
      38.80000000      90.00000000     360.00000000      48.14381501       1.65660176
      38.90000000      90.00000000     360.00000000      48.14400890       1.65660844
      39.00000000      90.00000000     360.00000000      48.14420276       1.65661511
      39.10000000      90.00000000     360.00000000      48.14439659       1.65662178
      39.20000000      90.00000000     360.00000000      48.14459041       1.65662845
      39.30000000      90.00000000     360.00000000      48.14478419       1.65663511
      39.40000000      90.00000000     360.00000000      48.14497796       1.65664178
      39.50000000      90.00000000     360.00000000      48.14517170       1.65664845
      39.60000000      90.00000000     360.00000000      48.14536541       1.65665511
      39.70000000      90.00000000     360.00000000      48.14555910       1.65666178
      39.80000000      90.00000000     360.00000000      48.14575277       1.65666844
      39.90000000      90.00000000     360.00000000      48.14594641       1.65667510
      40.00000000      90.00000000     360.00000000      48.14614002       1.65668177
