 # applied field (T), theta (degree), phi (degree), abs
     0.00000     0.00000     0.00000    42.75042
     0.10000     0.17197    45.00000    42.75042
     0.20000     0.40127    45.00000    42.75042
     0.30000     0.57325    45.00000    42.75042
     0.40000     0.74522    45.00000    42.75042
     0.50000     0.97452    45.00000    42.75042
     0.60000     1.14650    45.00000    42.75042
     0.70000     1.31847    45.00000    42.75042
     0.80000     1.54777    45.00000    42.75042
     0.90000     1.71975    45.00000    42.75042
     1.00000     1.89172    45.00000    42.75042
     1.10000     2.12102    45.00000    42.75042
     1.20000     2.29299    45.00000    42.75042
     1.30000     2.46497    45.00000    42.75042
     1.40000     2.69427    45.00000    42.75042
     1.50000     2.86624    45.00000    42.75042
     1.60000     3.03822    45.00000    42.75042
     1.70000     3.26752    45.00000    42.75042
     1.80000     3.43949    45.00000    42.75042
     1.90000     3.66879    45.00000    42.75042
     2.00000     3.84076    45.00000    42.75042
     2.10000     4.01274    45.00000    42.75042
     2.20000     4.24204    45.00000    42.75042
     2.30000     4.41401    45.00000    42.75042
     2.40000     4.58599    45.00000    42.75042
     2.50000     4.81529    45.00000    42.75042
     2.60000     4.98726    45.00000    42.75042
     2.70000     5.15924    45.00000    42.75042
     2.80000     5.38854    45.00000    42.75042
     2.90000     5.56051    45.00000    42.75042
     3.00000     5.73248    45.00000    42.75042
     3.10000     5.96178    45.00000    42.75042
     3.20000     6.13376    45.00000    42.75042
     3.30000     6.30573    45.00000    42.75042
     3.40000     6.53503    45.00000    42.75042
     3.50000     6.70701    45.00000    42.75042
     3.60000     6.87898    45.00000    42.75042
     3.70000     7.10828    45.00000    42.75042
     3.80000     7.28025    45.00000    42.75042
     3.90000     7.45223    45.00000    42.75042
     4.00000     7.68153    45.00000    42.75042
     4.10000     7.85350    45.00000    42.75042
     4.20000     8.02548    45.00000    42.75042
     4.30000     8.25478    45.00000    42.75042
     4.40000     8.42675    45.00000    42.75042
     4.50000     8.59873    45.00000    42.75042
     4.60000     8.82803    45.00000    42.75042
     4.70000     9.00000    45.00000    42.75042
     4.80000     9.17197    45.00000    42.75042
     4.90000     9.40127    45.00000    42.75042
     5.00000     9.57325    45.00000    42.75042
     5.10000     9.74522    45.00000    42.75042
     5.20000     9.97452    45.00000    42.75042
     5.30000    10.14650    45.00000    42.75042
     5.40000    10.31847    45.00000    42.75042
     5.50000    10.54777    45.00000    42.75042
     5.60000    10.71975    45.00000    42.75042
     5.70000    10.89172    45.00000    42.75042
     5.80000    11.12102    45.00000    42.75042
     5.90000    11.29299    45.00000    42.75042
     6.00000    11.46497    45.00000    42.75042
     6.10000    11.63694    45.00000    42.75042
     6.20000    11.86624    45.00000    42.75042
     6.30000    12.03822    45.00000    42.75042
     6.40000    12.21019    45.00000    42.75042
     6.50000    12.43949    45.00000    42.75042
     6.60000    12.61146    45.00000    42.75042
     6.70000    12.78344    45.00000    42.75042
     6.80000    13.01274    45.00000    42.75042
     6.90000    13.18471    45.00000    42.75042
     7.00000    13.35669    45.00000    42.75042
     7.10000    13.58599    45.00000    42.75042
     7.20000    13.75796    45.00000    42.75042
     7.30000    13.92994    45.00000    42.75042
     7.40000    14.15924    45.00000    42.75042
     7.50000    14.33121    45.00000    42.75042
     7.60000    14.50318    45.00000    42.75042
     7.70000    14.73248    45.00000    42.75042
     7.80000    14.90446    45.00000    42.75042
     7.90000    15.07643    45.00000    42.75042
     8.00000    15.24841    45.00000    42.75042
     8.10000    15.47771    45.00000    42.75042
     8.20000    15.64968    45.00000    42.75042
     8.30000    15.82166    45.00000    42.75042
     8.40000    16.05096    45.00000    42.75042
     8.50000    16.22293    45.00000    42.75042
     8.60000    16.39490    45.00000    42.75042
     8.70000    16.62420    45.00000    42.75042
     8.80000    16.79618    45.00000    42.75042
     8.90000    16.96815    45.00000    42.75042
     9.00000    17.14013    45.00000    42.75042
     9.10000    17.36943    45.00000    42.75042
     9.20000    17.54140    45.00000    42.75042
     9.30000    17.71338    45.00000    42.75042
     9.40000    17.94268    45.00000    42.75042
     9.50000    18.11465    45.00000    42.75042
     9.60000    18.28662    45.00000    42.75042
     9.70000    18.51592    45.00000    42.75042
     9.80000    18.68790    45.00000    42.75042
     9.90000    18.85987    45.00000    42.75042
    10.00000    19.03185    45.00000    42.75042
    10.10000    19.26115    45.00000    42.75042
    10.20000    19.43312    45.00000    42.75042
    10.30000    19.60510    45.00000    42.75042
    10.40000    19.83439    45.00000    42.75042
    10.50000    20.00637    45.00000    42.75042
    10.60000    20.17834    45.00000    42.75042
    10.70000    20.35032    45.00000    42.75042
    10.80000    20.57962    45.00000    42.75042
    10.90000    20.75159    45.00000    42.75042
    11.00000    20.92357    45.00000    42.75042
    11.10000    21.09554    45.00000    42.75042
    11.20000    21.32484    45.00000    42.75042
    11.30000    21.49682    45.00000    42.75042
    11.40000    21.66879    45.00000    42.75042
    11.50000    21.89809    45.00000    42.75042
    11.60000    22.07006    45.00000    42.75042
    11.70000    22.24204    45.00000    42.75042
    11.80000    22.41401    45.00000    42.75042
    11.90000    22.64331    45.00000    42.75042
    12.00000    22.81529    45.00000    42.75042
    12.10000    22.98726    45.00000    42.75042
    12.20000    23.15924    45.00000    42.75042
    12.30000    23.38854    45.00000    42.75042
    12.40000    23.56051    45.00000    42.75042
    12.50000    23.73248    45.00000    42.75042
    12.60000    23.90446    45.00000    42.75042
    12.70000    24.13376    45.00000    42.75042
    12.80000    24.30573    45.00000    42.75042
    12.90000    24.47771    45.00000    42.75042
    13.00000    24.64968    45.00000    42.75042
    13.10000    24.87898    45.00000    42.75042
    13.20000    25.05096    45.00000    42.75042
    13.30000    25.22293    45.00000    42.75042
    13.40000    25.39490    45.00000    42.75042
    13.50000    25.62420    45.00000    42.75042
    13.60000    25.79618    45.00000    42.75042
    13.70000    25.96815    45.00000    42.75042
    13.80000    26.14013    45.00000    42.75042
    13.90000    26.36943    45.00000    42.75042
    14.00000    26.54140    45.00000    42.75042
    14.10000    26.71338    45.00000    42.75042
    14.20000    26.88535    45.00000    42.75042
    14.30000    27.05732    45.00000    42.75042
    14.40000    27.28662    45.00000    42.75042
    14.50000    27.45860    45.00000    42.75042
    14.60000    27.63057    45.00000    42.75042
    14.70000    27.80255    45.00000    42.75042
    14.80000    28.03185    45.00000    42.75042
    14.90000    28.20382    45.00000    42.75042
    15.00000    28.37580    45.00000    42.75042
    15.10000    28.54777    45.00000    42.75042
    15.20000    28.71975    45.00000    42.75042
    15.30000    28.94904    45.00000    42.75042
    15.40000    29.12102    45.00000    42.75042
    15.50000    29.29299    45.00000    42.75042
    15.60000    29.46497    45.00000    42.75042
    15.70000    29.63694    45.00000    42.75042
    15.80000    29.86624    45.00000    42.75042
    15.90000    30.03822    45.00000    42.75042
    16.00000    30.21019    45.00000    42.75042
    16.10000    30.38217    45.00000    42.75042
    16.20000    30.55414    45.00000    42.75042
    16.30000    30.78344    45.00000    42.75042
    16.40000    30.95541    45.00000    42.75042
    16.50000    31.12739    45.00000    42.75042
    16.60000    31.29936    45.00000    42.75042
    16.70000    31.47134    45.00000    42.75042
    16.80000    31.70064    45.00000    42.75042
    16.90000    31.87261    45.00000    42.75042
    17.00000    32.04459    45.00000    42.75042
    17.10000    32.21656    45.00000    42.75042
    17.20000    32.38854    45.00000    42.75042
    17.30000    32.56051    45.00000    42.75042
    17.40000    32.78981    45.00000    42.75042
    17.50000    32.96178    45.00000    42.75042
    17.60000    33.13376    45.00000    42.75042
    17.70000    33.30573    45.00000    42.75042
    17.80000    33.47771    45.00000    42.75042
    17.90000    33.64968    45.00000    42.75042
    18.00000    33.87898    45.00000    42.75042
    18.10000    34.05096    45.00000    42.75042
    18.20000    34.22293    45.00000    42.75042
    18.30000    34.39490    45.00000    42.75042
    18.40000    34.56688    45.00000    42.75042
    18.50000    34.73885    45.00000    42.75042
    18.60000    34.96815    45.00000    42.75042
    18.70000    35.14013    45.00000    42.75042
    18.80000    35.31210    45.00000    42.75042
    18.90000    35.48408    45.00000    42.75042
    19.00000    35.65605    45.00000    42.75042
    19.10000    35.82803    45.00000    42.75042
    19.20000    36.00000    45.00000    42.75042
    19.30000    36.17197    45.00000    42.75042
    19.40000    36.40127    45.00000    42.75042
    19.50000    36.57325    45.00000    42.75042
    19.60000    36.74522    45.00000    42.75042
    19.70000    36.91720    45.00000    42.75042
    19.80000    37.08917    45.00000    42.75042
    19.90000    37.26115    45.00000    42.75042
    20.00000    37.43312    45.00000    42.75042
    20.10000    37.60510    45.00000    42.75042
    20.20000    37.83439    45.00000    42.75042
    20.30000    38.00637    45.00000    42.75042
    20.40000    38.17834    45.00000    42.75042
    20.50000    38.35032    45.00000    42.75042
    20.60000    38.52229    45.00000    42.75042
    20.70000    38.69427    45.00000    42.75042
    20.80000    38.86624    45.00000    42.75042
    20.90000    39.03822    45.00000    42.75042
    21.00000    39.21019    45.00000    42.75042
    21.10000    39.38217    45.00000    42.75042
    21.20000    39.55414    45.00000    42.75042
    21.30000    39.78344    45.00000    42.75042
    21.40000    39.95541    45.00000    42.75042
    21.50000    40.12739    45.00000    42.75042
    21.60000    40.29936    45.00000    42.75042
    21.70000    40.47134    45.00000    42.75042
    21.80000    40.64331    45.00000    42.75042
    21.90000    40.81529    45.00000    42.75042
    22.00000    40.98726    45.00000    42.75042
    22.10000    41.15924    45.00000    42.75042
    22.20000    41.33121    45.00000    42.75042
    22.30000    41.50318    45.00000    42.75042
    22.40000    41.67516    45.00000    42.75042
    22.50000    41.84713    45.00000    42.75042
    22.60000    42.01911    45.00000    42.75042
    22.70000    42.19108    45.00000    42.75042
    22.80000    42.36306    45.00000    42.75042
    22.90000    42.53503    45.00000    42.75042
    23.00000    42.76433    45.00000    42.75042
    23.10000    42.93631    45.00000    42.75042
    23.20000    43.10828    45.00000    42.75042
    23.30000    43.28025    45.00000    42.75042
    23.40000    43.45223    45.00000    42.75042
    23.50000    43.62420    45.00000    42.75042
    23.60000    43.79618    45.00000    42.75042
    23.70000    43.96815    45.00000    42.75042
    23.80000    44.14013    45.00000    42.75042
    23.90000    44.31210    45.00000    42.75042
    24.00000    44.48408    45.00000    42.75042
    24.10000    44.65605    45.00000    42.75042
    24.20000    44.82803    45.00000    42.75042
    24.30000    45.00000    45.00000    42.75042
    24.40000    45.17197    45.00000    42.75042
    24.50000    45.34395    45.00000    42.75042
    24.60000    45.51592    45.00000    42.75042
    24.70000    45.68790    45.00000    42.75042
    24.80000    45.85987    45.00000    42.75042
    24.90000    46.03185    45.00000    42.75042
    25.00000    46.20382    45.00000    42.75042
    25.10000    46.37580    45.00000    42.75042
    25.20000    46.54777    45.00000    42.75042
    25.30000    46.71975    45.00000    42.75042
    25.40000    46.83439    45.00000    42.75042
    25.50000    47.00637    45.00000    42.75042
    25.60000    47.17834    45.00000    42.75042
    25.70000    47.35032    45.00000    42.75042
    25.80000    47.52229    45.00000    42.75042
    25.90000    47.69427    45.00000    42.75042
    26.00000    47.86624    45.00000    42.75042
    26.10000    48.03822    45.00000    42.75042
    26.20000    48.21019    45.00000    42.75042
    26.30000    48.38217    45.00000    42.75042
    26.40000    48.55414    45.00000    42.75042
    26.50000    48.72611    45.00000    42.75042
    26.60000    48.89809    45.00000    42.75042
    26.70000    49.07006    45.00000    42.75042
    26.80000    49.24204    45.00000    42.75042
    26.90000    49.41401    45.00000    42.75042
    27.00000    49.52866    45.00000    42.75042
    27.10000    49.70064    45.00000    42.75042
    27.20000    49.87261    45.00000    42.75042
    27.30000    50.04459    45.00000    42.75042
    27.40000    50.21656    45.00000    42.75042
    27.50000    50.38854    45.00000    42.75042
    27.60000    50.56051    45.00000    42.75042
    27.70000    50.73248    45.00000    42.75042
    27.80000    50.90446    45.00000    42.75042
    27.90000    51.07643    45.00000    42.75042
    28.00000    51.19108    45.00000    42.75042
    28.10000    51.36306    45.00000    42.75042
    28.20000    51.53503    45.00000    42.75042
    28.30000    51.70701    45.00000    42.75042
    28.40000    51.87898    45.00000    42.75042
    28.50000    52.05096    45.00000    42.75042
    28.60000    52.22293    45.00000    42.75042
    28.70000    52.33758    45.00000    42.75042
    28.80000    52.50955    45.00000    42.75042
    28.90000    52.68153    45.00000    42.75042
    29.00000    52.85350    45.00000    42.75042
    29.10000    53.02548    45.00000    42.75042
    29.20000    53.19745    45.00000    42.75042
    29.30000    53.36943    45.00000    42.75042
    29.40000    53.48408    45.00000    42.75042
    29.50000    53.65605    45.00000    42.75042
    29.60000    53.82803    45.00000    42.75042
    29.70000    54.00000    45.00000    42.75042
    29.80000    54.17197    45.00000    42.75042
    29.90000    54.34395    45.00000    42.75042
    30.00000    54.45860    45.00000    42.75042
    30.10000    54.63057    45.00000    42.75042
    30.20000    54.80255    45.00000    42.75042
    30.30000    54.97452    45.00000    42.75042
    30.40000    55.14650    45.00000    42.75042
    30.50000    55.26115    45.00000    42.75042
    30.60000    55.43312    45.00000    42.75042
    30.70000    55.60510    45.00000    42.75042
    30.80000    55.77707    45.00000    42.75042
    30.90000    55.94904    45.00000    42.75042
    31.00000    56.06369    45.00000    42.75042
    31.10000    56.23567    45.00000    42.75042
    31.20000    56.40764    45.00000    42.75042
    31.30000    56.57962    45.00000    42.75042
    31.40000    56.69427    45.00000    42.75042
    31.50000    56.86624    45.00000    42.75042
    31.60000    57.03822    45.00000    42.75042
    31.70000    57.21019    45.00000    42.75042
    31.80000    57.38217    45.00000    42.75042
    31.90000    57.49682    45.00000    42.75042
    32.00000    57.66879    45.00000    42.75042
    32.10000    57.84076    45.00000    42.75042
    32.20000    58.01274    45.00000    42.75042
    32.30000    58.12739    45.00000    42.75042
    32.40000    58.29936    45.00000    42.75042
    32.50000    58.47134    45.00000    42.75042
    32.60000    58.64331    45.00000    42.75042
    32.70000    58.75796    45.00000    42.75042
    32.80000    58.92994    45.00000    42.75042
    32.90000    59.10191    45.00000    42.75042
    33.00000    59.27389    45.00000    42.75042
    33.10000    59.38854    45.00000    42.75042
    33.20000    59.56051    45.00000    42.75042
    33.30000    59.73248    45.00000    42.75042
    33.40000    59.90446    45.00000    42.75042
    33.50000    60.01911    45.00000    42.75042
    33.60000    60.19108    45.00000    42.75042
    33.70000    60.36306    45.00000    42.75042
    33.80000    60.47771    45.00000    42.75042
    33.90000    60.64968    45.00000    42.75042
    34.00000    60.82166    45.00000    42.75042
    34.10000    60.99363    45.00000    42.75042
    34.20000    61.10828    45.00000    42.75042
    34.30000    61.28025    45.00000    42.75042
    34.40000    61.45223    45.00000    42.75042
    34.50000    61.56688    45.00000    42.75042
    34.60000    61.73885    45.00000    42.75042
    34.70000    61.91083    45.00000    42.75042
    34.80000    62.08280    45.00000    42.75042
    34.90000    62.19745    45.00000    42.75042
    35.00000    62.36943    45.00000    42.75042
    35.10000    62.54140    45.00000    42.75042
    35.20000    62.65605    45.00000    42.75042
    35.30000    62.82803    45.00000    42.75042
    35.40000    63.00000    45.00000    42.75042
    35.50000    63.11465    45.00000    42.75042
    35.60000    63.28662    45.00000    42.75042
    35.70000    63.45860    45.00000    42.75042
    35.80000    63.63057    45.00000    42.75042
    35.90000    63.74522    45.00000    42.75042
    36.00000    63.91720    45.00000    42.75042
    36.10000    64.08917    45.00000    42.75042
    36.20000    64.20382    45.00000    42.75042
    36.30000    64.37580    45.00000    42.75042
    36.40000    64.54777    45.00000    42.75042
    36.50000    64.66242    45.00000    42.75042
    36.60000    64.83439    45.00000    42.75042
    36.70000    65.00637    45.00000    42.75042
    36.80000    65.17834    45.00000    42.75042
    36.90000    65.29299    45.00000    42.75042
    37.00000    65.46497    45.00000    42.75042
    37.10000    65.63694    45.00000    42.75042
    37.20000    65.75159    45.00000    42.75042
    37.30000    65.92357    45.00000    42.75042
    37.40000    66.09554    45.00000    42.75042
    37.50000    66.21019    45.00000    42.75042
    37.60000    66.38217    45.00000    42.75042
    37.70000    66.55414    45.00000    42.75042
    37.80000    66.72611    45.00000    42.75042
    37.90000    66.84076    45.00000    42.75042
    38.00000    67.01274    45.00000    42.75042
    38.10000    67.18471    45.00000    42.75042
    38.20000    67.29936    45.00000    42.75042
    38.30000    67.47134    45.00000    42.75042
    38.40000    67.64331    45.00000    42.75042
    38.50000    67.81529    45.00000    42.75042
    38.60000    67.92994    45.00000    42.75042
    38.70000    68.10191    45.00000    42.75042
    38.80000    68.27389    45.00000    42.75042
    38.90000    68.38854    45.00000    42.75042
    39.00000    68.56051    45.00000    42.75042
    39.10000    68.73248    45.00000    42.75042
    39.20000    68.90446    45.00000    42.75042
    39.30000    69.01911    45.00000    42.75042
    39.40000    69.19108    45.00000    42.75042
    39.50000    69.36306    45.00000    42.75042
    39.60000    69.53503    45.00000    42.75042
    39.70000    69.64968    45.00000    42.75042
    39.80000    69.82166    45.00000    42.75042
    39.90000    69.99363    45.00000    42.75042
    40.00000    70.16561    45.00000    42.75042
