 # applied field (T), theta (degree), phi (degree), abs for RE 3-4
     0.00000     0.24392   135.00000     4.68866     0.24392    45.00000     4.68866
     0.10000     0.36681    86.67958     4.68866     0.53451    45.00000     4.68863
     0.20000     0.59977    68.99560     4.68866     0.82530    45.00000     4.68859
     0.30000     0.90066    60.71127     4.68865     1.16420    45.00000     4.68854
     0.40000     1.16685    57.06375     4.68863     1.45548    45.00000     4.68849
     0.50000     1.43607    54.77628     4.68862     1.74702    45.00000     4.68844
     0.60000     1.70693    53.21216     4.68860     2.03884    45.00000     4.68838
     0.70000     2.02361    51.91896     4.68857     2.37903    45.00000     4.68831
     0.80000     2.29630    51.09296     4.68854     2.67151    45.00000     4.68825
     0.90000     2.56950    50.44202     4.68851     2.96434    45.00000     4.68818
     1.00000     2.84311    49.91588     4.68848     3.25751    45.00000     4.68810
     1.10000     3.16219    49.41759     4.68843     3.59939    45.00000     4.68801
     1.20000     3.43655    49.06322     4.68839     3.89341    45.00000     4.68792
     1.30000     3.71123    48.76098     4.68834     4.18784    45.00000     4.68783
     1.40000     4.03146    48.46061     4.68829     4.53125    45.00000     4.68772
     1.50000     4.30680    48.23805     4.68823     4.82664    45.00000     4.68762
     1.60000     4.58245    48.04200     4.68818     5.12251    45.00000     4.68752
     1.70000     4.90383    47.84122     4.68811     5.46767    45.00000     4.68739
     1.80000     5.18017    47.68845     4.68804     5.76463    45.00000     4.68728
     1.90000     5.45685    47.55096     4.68798     6.06212    45.00000     4.68716
     2.00000     5.77947    47.40722     4.68789     6.40924    45.00000     4.68702
     2.10000     6.05692    47.29580     4.68782     6.70794    45.00000     4.68689
     2.20000     6.38046    47.17806     4.68773     7.05652    45.00000     4.68674
     2.30000     6.65874    47.08590     4.68764     7.35651    45.00000     4.68660
     2.40000     6.98328    46.98764     4.68754     7.70665    45.00000     4.68644
     2.50000     7.26245    46.91011     4.68745     8.00801    45.00000     4.68630
     2.60000     7.58807    46.82684     4.68735     8.35979    45.00000     4.68612
     2.70000     7.91431    46.75023     4.68723     8.71249    45.00000     4.68594
     2.80000     8.19497    46.68916     4.68713     9.01612    45.00000     4.68579
     2.90000     8.52241    46.62296     4.68701     9.37061    45.00000     4.68560
     3.00000     8.85053    46.56149     4.68688     9.72608    45.00000     4.68540
     3.10000     9.13286    46.51209     4.68677    10.03216    45.00000     4.68523
     3.20000     9.46230    46.45814     4.68663    10.38955    45.00000     4.68503
     3.30000     9.79248    46.40767     4.68650    10.74801    45.00000     4.68482
     3.40000    10.12344    46.36034     4.68635    11.10755    45.00000     4.68460
     3.50000    10.45519    46.31586     4.68620    11.46821    45.00000     4.68439
     3.60000    10.78775    46.27398     4.68605    11.83000    45.00000     4.68416
     3.70000    11.12116    46.23448     4.68589    12.19294    45.00000     4.68393
     3.80000    11.45542    46.19714     4.68573    12.55706    45.00000     4.68370
     3.90000    11.79058    46.16179     4.68556    12.92238    45.00000     4.68346
     4.00000    12.17419    46.12367     4.68537    13.34080    45.00000     4.68319
     4.10000    12.51132    46.09207     4.68519    13.70874    45.00000     4.68294
     4.20000    12.84940    46.06201     4.68501    14.07794    45.00000     4.68269
     4.30000    13.23645    46.02944     4.68480    14.50086    45.00000     4.68240
     4.40000    13.57666    46.00231     4.68462    14.87281    45.00000     4.68214
     4.50000    13.96619    45.97283     4.68440    15.29892    45.00000     4.68184
     4.60000    14.35710    45.94482     4.68417    15.72675    45.00000     4.68153
     4.70000    14.70077    45.92138     4.68397    16.10306    45.00000     4.68126
     4.80000    15.09433    45.89583     4.68373    16.53420    45.00000     4.68095
     4.90000    15.48936    45.87144     4.68349    16.96712    45.00000     4.68064
     5.00000    15.93508    45.84534     4.68322    17.45581    45.00000     4.68028
     5.10000    16.33331    45.82318     4.68297    17.89259    45.00000     4.67995
     5.20000    16.73311    45.80197     4.68271    18.33121    45.00000     4.67963
     5.30000    17.18429    45.77917     4.68242    18.82634    45.00000     4.67926
     5.40000    17.63752    45.75740     4.68212    19.32383    45.00000     4.67889
     5.50000    18.09283    45.73658     4.68181    19.82367    45.00000     4.67851
     5.60000    18.55026    45.71666     4.68151    20.32589    45.00000     4.67813
     5.70000    19.00985    45.69757     4.68119    20.83048    45.00000     4.67776
     5.80000    19.52264    45.67729     4.68084    21.39346    45.00000     4.67734
     5.90000    20.03819    45.65789     4.68048    21.95937    45.00000     4.67692
     6.00000    20.55652    45.63933     4.68011    22.52819    45.00000     4.67649
     6.10000    21.12958    45.61982     4.67970    23.15685    45.00000     4.67603
     6.20000    21.65391    45.60283     4.67932    23.73176    45.00000     4.67562
     6.30000    22.28618    45.58334     4.67887    24.42459    45.00000     4.67512
     6.40000    22.92269    45.56475     4.67840    25.12150    45.00000     4.67463
     6.50000    90.00000    45.00000     4.66495    88.75781    45.00000     4.67609
     6.60000    90.00000    45.00000     4.66492    88.75798    45.00000     4.67607
     6.70000    90.00000    45.00000     4.66490    88.75814    45.00000     4.67605
     6.80000    90.00000    45.00000     4.66488    88.75830    45.00000     4.67603
     6.90000    90.00000    45.00000     4.66485    88.75846    45.00000     4.67601
     7.00000    90.00000    45.00000     4.66483    88.75863    45.00000     4.67598
     7.10000    90.00000    45.00000     4.66480    88.75879    45.00000     4.67596
     7.20000    90.00000    45.00000     4.66478    88.75895    45.00000     4.67594
     7.30000    90.00000    45.00000     4.66476    88.75911    45.00000     4.67592
     7.40000    90.00000    45.00000     4.66473    88.75928    45.00000     4.67589
     7.50000    90.00000    45.00000     4.66471    88.75944    45.00000     4.67587
     7.60000    90.00000    45.00000     4.66469    88.75960    45.00000     4.67585
     7.70000    90.00000    45.00000     4.66466    88.75976    45.00000     4.67583
     7.80000    90.00000    45.00000     4.66464    88.75992    45.00000     4.67581
     7.90000    90.00000    45.00000     4.66462    88.76009    45.00000     4.67578
     8.00000    90.00000    45.00000     4.66459    88.76025    45.00000     4.67576
     8.10000    90.00000    45.00000     4.66457    88.76041    45.00000     4.67574
     8.20000    90.00000    45.00000     4.66454    88.76057    45.00000     4.67572
     8.30000    90.00000    45.00000     4.66452    88.76073    45.00000     4.67569
     8.40000    90.00000    45.00000     4.66450    88.76090    45.00000     4.67567
     8.50000    90.00000    45.00000     4.66447    88.76106    45.00000     4.67565
     8.60000    90.00000    45.00000     4.66445    88.76122    45.00000     4.67563
     8.70000    90.00000    45.00000     4.66443    88.76138    45.00000     4.67560
     8.80000    90.00000    45.00000     4.66440    88.76154    45.00000     4.67558
     8.90000    90.00000    45.00000     4.66438    88.76170    45.00000     4.67556
     9.00000    90.00000    45.00000     4.66436    88.76187    45.00000     4.67554
     9.10000    90.00000    45.00000     4.66433    88.76203    45.00000     4.67552
     9.20000    90.00000    45.00000     4.66431    88.76219    45.00000     4.67549
     9.30000    90.00000    45.00000     4.66428    88.76235    45.00000     4.67547
     9.40000    90.00000    45.00000     4.66426    88.76251    45.00000     4.67545
     9.50000    90.00000    45.00000     4.66424    88.76267    45.00000     4.67543
     9.60000    90.00000    45.00000     4.66421    88.76283    45.00000     4.67540
     9.70000    90.00000    45.00000     4.66419    88.76299    45.00000     4.67538
     9.80000    90.00000    45.00000     4.66417    88.76316    45.00000     4.67536
     9.90000    90.00000    45.00000     4.66414    88.76332    45.00000     4.67534
    10.00000    90.00000    45.00000     4.66412    88.76348    45.00000     4.67531
    10.10000    90.00000    45.00000     4.66410    88.76364    45.00000     4.67529
    10.20000    90.00000    45.00000     4.66407    88.76380    45.00000     4.67527
    10.30000    90.00000    45.00000     4.66405    88.76396    45.00000     4.67525
    10.40000    90.00000    45.00000     4.66402    88.76412    45.00000     4.67522
    10.50000    90.00000    45.00000     4.66400    88.76428    45.00000     4.67520
    10.60000    90.00000    45.00000     4.66398    88.76444    45.00000     4.67518
    10.70000    90.00000    45.00000     4.66395    88.76460    45.00000     4.67516
    10.80000    90.00000    45.00000     4.66393    88.76476    45.00000     4.67514
    10.90000    90.00000    45.00000     4.66391    88.76492    45.00000     4.67511
    11.00000    90.00000    45.00000     4.66388    88.76508    45.00000     4.67509
    11.10000    90.00000    45.00000     4.66386    88.76524    45.00000     4.67507
    11.20000    90.00000    45.00000     4.66383    88.76540    45.00000     4.67505
    11.30000    90.00000    45.00000     4.66381    88.76557    45.00000     4.67502
    11.40000    90.00000    45.00000     4.66379    88.76573    45.00000     4.67500
    11.50000    90.00000    45.00000     4.66376    88.76589    45.00000     4.67498
    11.60000    90.00000    45.00000     4.66374    88.76605    45.00000     4.67496
    11.70000    90.00000    45.00000     4.66372    88.76621    45.00000     4.67493
    11.80000    90.00000    45.00000     4.66369    88.76637    45.00000     4.67491
    11.90000    90.00000    45.00000     4.66367    88.76653    45.00000     4.67489
    12.00000    90.00000    45.00000     4.66364    88.76669    45.00000     4.67487
    12.10000    90.00000    45.00000     4.66362    88.76685    45.00000     4.67484
    12.20000    90.00000    45.00000     4.66360    88.76701    45.00000     4.67482
    12.30000    90.00000    45.00000     4.66357    88.76716    45.00000     4.67480
    12.40000    90.00000    45.00000     4.66355    88.76732    45.00000     4.67478
    12.50000    90.00000    45.00000     4.66353    88.76748    45.00000     4.67475
    12.60000    90.00000    45.00000     4.66350    88.76764    45.00000     4.67473
    12.70000    90.00000    45.00000     4.66348    88.76780    45.00000     4.67471
    12.80000    90.00000    45.00000     4.66345    88.76796    45.00000     4.67469
    12.90000    90.00000    45.00000     4.66343    88.76812    45.00000     4.67466
    13.00000    90.00000    45.00000     4.66341    88.76828    45.00000     4.67464
    13.10000    90.00000    45.00000     4.66338    88.76844    45.00000     4.67462
    13.20000    90.00000    45.00000     4.66336    88.76860    45.00000     4.67460
    13.30000    90.00000    45.00000     4.66334    88.76876    45.00000     4.67457
    13.40000    90.00000    45.00000     4.66331    88.76892    45.00000     4.67455
    13.50000    90.00000    45.00000     4.66329    88.76908    45.00000     4.67453
    13.60000    90.00000    45.00000     4.66326    88.76924    45.00000     4.67451
    13.70000    90.00000    45.00000     4.66324    88.76940    45.00000     4.67449
    13.80000    90.00000    45.00000     4.66322    88.76956    45.00000     4.67446
    13.90000    90.00000    45.00000     4.66319    88.76971    45.00000     4.67444
    14.00000    90.00000    45.00000     4.66317    88.76987    45.00000     4.67442
    14.10000    90.00000    45.00000     4.66314    88.77003    45.00000     4.67440
    14.20000    90.00000    45.00000     4.66312    88.77019    45.00000     4.67437
    14.30000    90.00000    45.00000     4.66310    88.77035    45.00000     4.67435
    14.40000    90.00000    45.00000     4.66307    88.77051    45.00000     4.67433
    14.50000    90.00000    45.00000     4.66305    88.77067    45.00000     4.67431
    14.60000    90.00000    45.00000     4.66303    88.77083    45.00000     4.67428
    14.70000    90.00000    45.00000     4.66300    88.77098    45.00000     4.67426
    14.80000    90.00000    45.00000     4.66298    88.77114    45.00000     4.67424
    14.90000    90.00000    45.00000     4.66295    88.77130    45.00000     4.67422
    15.00000    90.00000    45.00000     4.66293    88.77146    45.00000     4.67419
    15.10000    90.00000    45.00000     4.66291    88.77162    45.00000     4.67417
    15.20000    90.00000    45.00000     4.66288    88.77178    45.00000     4.67415
    15.30000    90.00000    45.00000     4.66286    88.77193    45.00000     4.67413
    15.40000    90.00000    45.00000     4.66283    88.77209    45.00000     4.67410
    15.50000    90.00000    45.00000     4.66281    88.77225    45.00000     4.67408
    15.60000    90.00000    45.00000     4.66279    88.77241    45.00000     4.67406
    15.70000    90.00000    45.00000     4.66276    88.77257    45.00000     4.67404
    15.80000    90.00000    45.00000     4.66274    88.77272    45.00000     4.67401
    15.90000    90.00000    45.00000     4.66272    88.77288    45.00000     4.67399
    16.00000    90.00000    45.00000     4.66269    88.77304    45.00000     4.67397
    16.10000    90.00000    45.00000     4.66267    88.77320    45.00000     4.67395
    16.20000    90.00000    45.00000     4.66264    88.77336    45.00000     4.67392
    16.30000    90.00000    45.00000     4.66262    88.77351    45.00000     4.67390
    16.40000    90.00000    45.00000     4.66260    88.77367    45.00000     4.67388
    16.50000    90.00000    45.00000     4.66257    88.77383    45.00000     4.67386
    16.60000    90.00000    45.00000     4.66255    88.77399    45.00000     4.67383
    16.70000    90.00000    45.00000     4.66252    88.77414    45.00000     4.67381
    16.80000    90.00000    45.00000     4.66250    88.77430    45.00000     4.67379
    16.90000    90.00000    45.00000     4.66248    88.77446    45.00000     4.67376
    17.00000    90.00000    45.00000     4.66245    88.77462    45.00000     4.67374
    17.10000    90.00000    45.00000     4.66243    88.77477    45.00000     4.67372
    17.20000    90.00000    45.00000     4.66240    88.77493    45.00000     4.67370
    17.30000    90.00000    45.00000     4.66238    88.77509    45.00000     4.67367
    17.40000    90.00000    45.00000     4.66236    88.77525    45.00000     4.67365
    17.50000    90.00000    45.00000     4.66233    88.77540    45.00000     4.67363
    17.60000    90.00000    45.00000     4.66231    88.77556    45.00000     4.67361
    17.70000    90.00000    45.00000     4.66229    88.77572    45.00000     4.67358
    17.80000    90.00000    45.00000     4.66226    88.77587    45.00000     4.67356
    17.90000    90.00000    45.00000     4.66224    88.77603    45.00000     4.67354
    18.00000    90.00000    45.00000     4.66221    88.77619    45.00000     4.67352
    18.10000    90.00000    45.00000     4.66219    88.77634    45.00000     4.67349
    18.20000    90.00000    45.00000     4.66217    88.77650    45.00000     4.67347
    18.30000    90.00000    45.00000     4.66214    88.77666    45.00000     4.67345
    18.40000    90.00000    45.00000     4.66212    88.77681    45.00000     4.67343
    18.50000    90.00000    45.00000     4.66209    88.77697    45.00000     4.67340
    18.60000    90.00000    45.00000     4.66207    88.77713    45.00000     4.67338
    18.70000    90.00000    45.00000     4.66205    88.77728    45.00000     4.67336
    18.80000    90.00000    45.00000     4.66202    88.77744    45.00000     4.67334
    18.90000    90.00000    45.00000     4.66200    88.77760    45.00000     4.67331
    19.00000    90.00000    45.00000     4.66197    88.77775    45.00000     4.67329
    19.10000    90.00000    45.00000     4.66195    88.77791    45.00000     4.67327
    19.20000    90.00000    45.00000     4.66193    88.77807    45.00000     4.67325
    19.30000    90.00000    45.00000     4.66190    88.77822    45.00000     4.67322
    19.40000    90.00000    45.00000     4.66188    88.77838    45.00000     4.67320
    19.50000    90.00000    45.00000     4.66185    88.77854    45.00000     4.67318
    19.60000    90.00000    45.00000     4.66183    88.77869    45.00000     4.67316
    19.70000    90.00000    45.00000     4.66181    88.77885    45.00000     4.67313
    19.80000    90.00000    45.00000     4.66178    88.77900    45.00000     4.67311
    19.90000    90.00000    45.00000     4.66176    88.77916    45.00000     4.67309
    20.00000    90.00000    45.00000     4.66173    88.77932    45.00000     4.67306
    20.10000    90.00000    45.00000     4.66171    88.77947    45.00000     4.67304
    20.20000    90.00000    45.00000     4.66169    88.77963    45.00000     4.67302
    20.30000    90.00000    45.00000     4.66166    88.77978    45.00000     4.67300
    20.40000    90.00000    45.00000     4.66164    88.77994    45.00000     4.67297
    20.50000    90.00000    45.00000     4.66161    88.78009    45.00000     4.67295
    20.60000    90.00000    45.00000     4.66159    88.78025    45.00000     4.67293
    20.70000    90.00000    45.00000     4.66157    88.78041    45.00000     4.67291
    20.80000    90.00000    45.00000     4.66154    88.78056    45.00000     4.67288
    20.90000    90.00000    45.00000     4.66152    88.78072    45.00000     4.67286
    21.00000    90.00000    45.00000     4.66149    88.78087    45.00000     4.67284
    21.10000    90.00000    45.00000     4.66147    88.78103    45.00000     4.67282
    21.20000    90.00000    45.00000     4.66145    88.78118    45.00000     4.67279
    21.30000    90.00000    45.00000     4.66142    88.78134    45.00000     4.67277
    21.40000    90.00000    45.00000     4.66140    88.78149    45.00000     4.67275
    21.50000    90.00000    45.00000     4.66137    88.78165    45.00000     4.67272
    21.60000    90.00000    45.00000     4.66135    88.78180    45.00000     4.67270
    21.70000    90.00000    45.00000     4.66133    88.78196    45.00000     4.67268
    21.80000    90.00000    45.00000     4.66130    88.78211    45.00000     4.67266
    21.90000    90.00000    45.00000     4.66128    88.78227    45.00000     4.67263
    22.00000    90.00000    45.00000     4.66125    88.78242    45.00000     4.67261
    22.10000    90.00000    45.00000     4.66123    88.78258    45.00000     4.67259
    22.20000    90.00000    45.00000     4.66121    88.78273    45.00000     4.67257
    22.30000    90.00000    45.00000     4.66118    88.78289    45.00000     4.67254
    22.40000    90.00000    45.00000     4.66116    88.78304    45.00000     4.67252
    22.50000    90.00000    45.00000     4.66113    88.78320    45.00000     4.67250
    22.60000    90.00000    45.00000     4.66111    88.78335    45.00000     4.67247
    22.70000    90.00000    45.00000     4.66108    88.78351    45.00000     4.67245
    22.80000    90.00000    45.00000     4.66106    88.78366    45.00000     4.67243
    22.90000    90.00000    45.00000     4.66104    88.78382    45.00000     4.67241
    23.00000    90.00000    45.00000     4.66101    88.78397    45.00000     4.67238
    23.10000    90.00000    45.00000     4.66099    88.78412    45.00000     4.67236
    23.20000    90.00000    45.00000     4.66096    88.78428    45.00000     4.67234
    23.30000    90.00000    45.00000     4.66094    88.78443    45.00000     4.67232
    23.40000    90.00000    45.00000     4.66092    88.78459    45.00000     4.67229
    23.50000    90.00000    45.00000     4.66089    88.78474    45.00000     4.67227
    23.60000    90.00000    45.00000     4.66087    88.78490    45.00000     4.67225
    23.70000    90.00000    45.00000     4.66084    88.78505    45.00000     4.67222
    23.80000    90.00000    45.00000     4.66082    88.78520    45.00000     4.67220
    23.90000    90.00000    45.00000     4.66080    88.78536    45.00000     4.67218
    24.00000    90.00000    45.00000     4.66077    88.78551    45.00000     4.67216
    24.10000    90.00000    45.00000     4.66075    88.78567    45.00000     4.67213
    24.20000    90.00000    45.00000     4.66072    88.78582    45.00000     4.67211
    24.30000    90.00000    45.00000     4.66070    88.78597    45.00000     4.67209
    24.40000    90.00000    45.00000     4.66067    88.78613    45.00000     4.67207
    24.50000    90.00000    45.00000     4.66065    88.78628    45.00000     4.67204
    24.60000    90.00000    45.00000     4.66063    88.78643    45.00000     4.67202
    24.70000    90.00000    45.00000     4.66060    88.78659    45.00000     4.67200
    24.80000    90.00000    45.00000     4.66058    88.78674    45.00000     4.67197
    24.90000    90.00000    45.00000     4.66055    88.78689    45.00000     4.67195
    25.00000    90.00000    45.00000     4.66053    88.78705    45.00000     4.67193
    25.10000    90.00000    45.00000     4.66051    88.78720    45.00000     4.67191
    25.20000    90.00000    45.00000     4.66048    88.78735    45.00000     4.67188
    25.30000    90.00000    45.00000     4.66046    88.78751    45.00000     4.67186
    25.40000    90.00000    45.00000     4.66043    88.78766    45.00000     4.67184
    25.50000    90.00000    45.00000     4.66041    88.78781    45.00000     4.67181
    25.60000    90.00000    45.00000     4.66038    88.78797    45.00000     4.67179
    25.70000    90.00000    45.00000     4.66036    88.78812    45.00000     4.67177
    25.80000    90.00000    45.00000     4.66034    88.78827    45.00000     4.67175
    25.90000    90.00000    45.00000     4.66031    88.78843    45.00000     4.67172
    26.00000    90.00000    45.00000     4.66029    88.78858    45.00000     4.67170
    26.10000    90.00000    45.00000     4.66026    88.78873    45.00000     4.67168
    26.20000    90.00000    45.00000     4.66024    88.78889    45.00000     4.67165
    26.30000    90.00000    45.00000     4.66022    88.78904    45.00000     4.67163
    26.40000    90.00000    45.00000     4.66019    88.78919    45.00000     4.67161
    26.50000    90.00000    45.00000     4.66017    88.78934    45.00000     4.67159
    26.60000    90.00000    45.00000     4.66014    88.78950    45.00000     4.67156
    26.70000    90.00000    45.00000     4.66012    88.78965    45.00000     4.67154
    26.80000    90.00000    45.00000     4.66009    88.78980    45.00000     4.67152
    26.90000    90.00000    45.00000     4.66007    88.78995    45.00000     4.67150
    27.00000    90.00000    45.00000     4.66005    88.79011    45.00000     4.67147
    27.10000    90.00000    45.00000     4.66002    88.79026    45.00000     4.67145
    27.20000    90.00000    45.00000     4.66000    88.79041    45.00000     4.67143
    27.30000    90.00000    45.00000     4.65997    88.79056    45.00000     4.67140
    27.40000    90.00000    45.00000     4.65995    88.79072    45.00000     4.67138
    27.50000    90.00000    45.00000     4.65992    88.79087    45.00000     4.67136
    27.60000    90.00000    45.00000     4.65990    88.79102    45.00000     4.67134
    27.70000    90.00000    45.00000     4.65988    88.79117    45.00000     4.67131
    27.80000    90.00000    45.00000     4.65985    88.79133    45.00000     4.67129
    27.90000    90.00000    45.00000     4.65983    88.79148    45.00000     4.67127
    28.00000    90.00000    45.00000     4.65980    88.79163    45.00000     4.67124
    28.10000    90.00000    45.00000     4.65978    88.79178    45.00000     4.67122
    28.20000    90.00000    45.00000     4.65976    88.79193    45.00000     4.67120
    28.30000    90.00000    45.00000     4.65973    88.79209    45.00000     4.67117
    28.40000    90.00000    45.00000     4.65971    88.79224    45.00000     4.67115
    28.50000    90.00000    45.00000     4.65968    88.79239    45.00000     4.67113
    28.60000    90.00000    45.00000     4.65966    88.79254    45.00000     4.67111
    28.70000    90.00000    45.00000     4.65963    88.79269    45.00000     4.67108
    28.80000    90.00000    45.00000     4.65961    88.79284    45.00000     4.67106
    28.90000    90.00000    45.00000     4.65959    88.79300    45.00000     4.67104
    29.00000    90.00000    45.00000     4.65956    88.79315    45.00000     4.67101
    29.10000    90.00000    45.00000     4.65954    88.79330    45.00000     4.67099
    29.20000    90.00000    45.00000     4.65951    88.79345    45.00000     4.67097
    29.30000    90.00000    45.00000     4.65949    88.79360    45.00000     4.67095
    29.40000    90.00000    45.00000     4.65946    88.79375    45.00000     4.67092
    29.50000    90.00000    45.00000     4.65944    88.79390    45.00000     4.67090
    29.60000    90.00000    45.00000     4.65942    88.79406    45.00000     4.67088
    29.70000    90.00000    45.00000     4.65939    88.79421    45.00000     4.67085
    29.80000    90.00000    45.00000     4.65937    88.79436    45.00000     4.67083
    29.90000    90.00000    45.00000     4.65934    88.79451    45.00000     4.67081
    30.00000    90.00000    45.00000     4.65932    88.79466    45.00000     4.67079
    30.10000    90.00000    45.00000     4.65929    88.79481    45.00000     4.67076
    30.20000    90.00000    45.00000     4.65927    88.79496    45.00000     4.67074
    30.30000    90.00000    45.00000     4.65924    88.79511    45.00000     4.67072
    30.40000    90.00000    45.00000     4.65922    88.79526    45.00000     4.67069
    30.50000    90.00000    45.00000     4.65920    88.79541    45.00000     4.67067
    30.60000    90.00000    45.00000     4.65917    88.79557    45.00000     4.67065
    30.70000    90.00000    45.00000     4.65915    88.79572    45.00000     4.67062
    30.80000    90.00000    45.00000     4.65912    88.79587    45.00000     4.67060
    30.90000    90.00000    45.00000     4.65910    88.79602    45.00000     4.67058
    31.00000    90.00000    45.00000     4.65907    88.79617    45.00000     4.67056
    31.10000    90.00000    45.00000     4.65905    88.79632    45.00000     4.67053
    31.20000    90.00000    45.00000     4.65903    88.79647    45.00000     4.67051
    31.30000    90.00000    45.00000     4.65900    88.79662    45.00000     4.67049
    31.40000    90.00000    45.00000     4.65898    88.79677    45.00000     4.67046
    31.50000    90.00000    45.00000     4.65895    88.79692    45.00000     4.67044
    31.60000    90.00000    45.00000     4.65893    88.79707    45.00000     4.67042
    31.70000    90.00000    45.00000     4.65890    88.79722    45.00000     4.67040
    31.80000    90.00000    45.00000     4.65888    88.79737    45.00000     4.67037
    31.90000    90.00000    45.00000     4.65886    88.79752    45.00000     4.67035
    32.00000    90.00000    45.00000     4.65883    88.79767    45.00000     4.67033
    32.10000    90.00000    45.00000     4.65881    88.79782    45.00000     4.67030
    32.20000    90.00000    45.00000     4.65878    88.79797    45.00000     4.67028
    32.30000    90.00000    45.00000     4.65876    88.79812    45.00000     4.67026
    32.40000    90.00000    45.00000     4.65873    88.79827    45.00000     4.67023
    32.50000    90.00000    45.00000     4.65871    88.79842    45.00000     4.67021
    32.60000    90.00000    45.00000     4.65868    88.79857    45.00000     4.67019
    32.70000    90.00000    45.00000     4.65866    88.79872    45.00000     4.67017
    32.80000    90.00000    45.00000     4.65864    88.79887    45.00000     4.67014
    32.90000    90.00000    45.00000     4.65861    88.79902    45.00000     4.67012
    33.00000    90.00000    45.00000     4.65859    88.79917    45.00000     4.67010
    33.10000    90.00000    45.00000     4.65856    88.79932    45.00000     4.67007
    33.20000    90.00000    45.00000     4.65854    88.79947    45.00000     4.67005
    33.30000    90.00000    45.00000     4.65851    88.79962    45.00000     4.67003
    33.40000    90.00000    45.00000     4.65849    88.79977    45.00000     4.67000
    33.50000    90.00000    45.00000     4.65846    88.79992    45.00000     4.66998
    33.60000    90.00000    45.00000     4.65844    88.80007    45.00000     4.66996
    33.70000    90.00000    45.00000     4.65842    88.80022    45.00000     4.66993
    33.80000    90.00000    45.00000     4.65839    88.80037    45.00000     4.66991
    33.90000    90.00000    45.00000     4.65837    88.80052    45.00000     4.66989
    34.00000    90.00000    45.00000     4.65834    88.80066    45.00000     4.66987
    34.10000    90.00000    45.00000     4.65832    88.80081    45.00000     4.66984
    34.20000    90.00000    45.00000     4.65829    88.80096    45.00000     4.66982
    34.30000    90.00000    45.00000     4.65827    88.80111    45.00000     4.66980
    34.40000    90.00000    45.00000     4.65824    88.80126    45.00000     4.66977
    34.50000    90.00000    45.00000     4.65822    88.80141    45.00000     4.66975
    34.60000    90.00000    45.00000     4.65820    88.80156    45.00000     4.66973
    34.70000    90.00000    45.00000     4.65817    88.80171    45.00000     4.66970
    34.80000    90.00000    45.00000     4.65815    88.80186    45.00000     4.66968
    34.90000    90.00000    45.00000     4.65812    88.80201    45.00000     4.66966
    35.00000    90.00000    45.00000     4.65810    88.80215    45.00000     4.66963
    35.10000    90.00000    45.00000     4.65807    88.80230    45.00000     4.66961
    35.20000    90.00000    45.00000     4.65805    88.80245    45.00000     4.66959
    35.30000    90.00000    45.00000     4.65802    88.80260    45.00000     4.66957
    35.40000    90.00000    45.00000     4.65800    88.80275    45.00000     4.66954
    35.50000    90.00000    45.00000     4.65798    88.80290    45.00000     4.66952
    35.60000    90.00000    45.00000     4.65795    88.80305    45.00000     4.66950
    35.70000    90.00000    45.00000     4.65793    88.80319    45.00000     4.66947
    35.80000    90.00000    45.00000     4.65790    88.80334    45.00000     4.66945
    35.90000    90.00000    45.00000     4.65788    88.80349    45.00000     4.66943
    36.00000    90.00000    45.00000     4.65785    88.80364    45.00000     4.66940
    36.10000    90.00000    45.00000     4.65783    88.80379    45.00000     4.66938
    36.20000    90.00000    45.00000     4.65780    88.80394    45.00000     4.66936
    36.30000    90.00000    45.00000     4.65778    88.80408    45.00000     4.66933
    36.40000    90.00000    45.00000     4.65775    88.80423    45.00000     4.66931
    36.50000    90.00000    45.00000     4.65773    88.80438    45.00000     4.66929
    36.60000    90.00000    45.00000     4.65771    88.80453    45.00000     4.66927
    36.70000    90.00000    45.00000     4.65768    88.80468    45.00000     4.66924
    36.80000    90.00000    45.00000     4.65766    88.80482    45.00000     4.66922
    36.90000    90.00000    45.00000     4.65763    88.80497    45.00000     4.66920
    37.00000    90.00000    45.00000     4.65761    88.80512    45.00000     4.66917
    37.10000    90.00000    45.00000     4.65758    88.80527    45.00000     4.66915
    37.20000    90.00000    45.00000     4.65756    88.80542    45.00000     4.66913
    37.30000    90.00000    45.00000     4.65753    88.80556    45.00000     4.66910
    37.40000    90.00000    45.00000     4.65751    88.80571    45.00000     4.66908
    37.50000    90.00000    45.00000     4.65748    88.80586    45.00000     4.66906
    37.60000    90.00000    45.00000     4.65746    88.80601    45.00000     4.66903
    37.70000    90.00000    45.00000     4.65744    88.80615    45.00000     4.66901
    37.80000    90.00000    45.00000     4.65741    88.80630    45.00000     4.66899
    37.90000    90.00000    45.00000     4.65739    88.80645    45.00000     4.66896
    38.00000    90.00000    45.00000     4.65736    88.80660    45.00000     4.66894
    38.10000    90.00000    45.00000     4.65734    88.80674    45.00000     4.66892
    38.20000    90.00000    45.00000     4.65731    88.80689    45.00000     4.66889
    38.30000    90.00000    45.00000     4.65729    88.80704    45.00000     4.66887
    38.40000    90.00000    45.00000     4.65726    88.80718    45.00000     4.66885
    38.50000    90.00000    45.00000     4.65724    88.80733    45.00000     4.66883
    38.60000    90.00000    45.00000     4.65721    88.80748    45.00000     4.66880
    38.70000    90.00000    45.00000     4.65719    88.80763    45.00000     4.66878
    38.80000    90.00000    45.00000     4.65717    88.80777    45.00000     4.66876
    38.90000    90.00000    45.00000     4.65714    88.80792    45.00000     4.66873
    39.00000    90.00000    45.00000     4.65712    88.80807    45.00000     4.66871
    39.10000    90.00000    45.00000     4.65709    88.80821    45.00000     4.66869
    39.20000    90.00000    45.00000     4.65707    88.80836    45.00000     4.66866
    39.30000    90.00000    45.00000     4.65704    88.80851    45.00000     4.66864
    39.40000    90.00000    45.00000     4.65702    88.80865    45.00000     4.66862
    39.50000    90.00000    45.00000     4.65699    88.80880    45.00000     4.66859
    39.60000    90.00000    45.00000     4.65697    88.80895    45.00000     4.66857
    39.70000    90.00000    45.00000     4.65694    88.80909    45.00000     4.66855
    39.80000    90.00000    45.00000     4.65692    88.80924    45.00000     4.66852
    39.90000    90.00000    45.00000     4.65689    88.80939    45.00000     4.66850
    40.00000    90.00000    45.00000     4.65687    88.80953    45.00000     4.66848
