 # applied field (T), theta (degree), phi (degree), abs for RE 1-2
     0.00000     0.00000     0.00000     4.19248     0.00000     0.00000     4.19248
     0.10000     0.24510   360.00000     4.19245     0.29230   360.00000     4.19247
     0.20000     0.44980   360.00000     4.19239     0.53641   360.00000     4.19246
     0.30000     0.69492   360.00000     4.19226     0.82873   360.00000     4.19243
     0.40000     0.89964   360.00000     4.19210     1.07286   360.00000     4.19240
     0.50000     1.14482   360.00000     4.19187     1.36520   360.00000     4.19234
     0.60000     1.39003   360.00000     4.19158     1.65756   360.00000     4.19228
     0.70000     1.59485   360.00000     4.19130     1.90174   360.00000     4.19222
     0.80000     1.84016   360.00000     4.19091     2.19415   360.00000     4.19213
     0.90000     2.08553   360.00000     4.19046     2.48660   360.00000     4.19203
     1.00000     2.29051   360.00000     4.19005     2.73086   360.00000     4.19194
     1.10000     2.53602   360.00000     4.18950     3.02338   360.00000     4.19182
     1.20000     2.74113   360.00000     4.18900     3.26770   360.00000     4.19170
     1.30000     2.98682   360.00000     4.18835     3.56031   360.00000     4.19156
     1.40000     3.23261   360.00000     4.18765     3.85298   360.00000     4.19140
     1.50000     3.43797   360.00000     4.18701     4.09743   360.00000     4.19126
     1.60000     3.68398   360.00000     4.18621     4.39021   360.00000     4.19108
     1.70000     3.93013   360.00000     4.18534     4.68306   360.00000     4.19089
     1.80000     4.13580   360.00000     4.18458     4.92767   360.00000     4.19072
     1.90000     4.38221   360.00000     4.18361     5.22065   360.00000     4.19050
     2.00000     4.58811   360.00000     4.18276     5.46538   360.00000     4.19031
     2.10000     4.83481   360.00000     4.18170     5.75852   360.00000     4.19008
     2.20000     5.08169   360.00000     4.18057     6.05174   360.00000     4.18982
     2.30000     5.28800   360.00000     4.17959     6.29668   360.00000     4.18961
     2.40000     5.53521   360.00000     4.17837     6.59008   360.00000     4.18933
     2.50000     5.78263   360.00000     4.17709     6.88358   360.00000     4.18905
     2.60000     5.98941   360.00000     4.17598     7.12876   360.00000     4.18880
     2.70000     6.23721   360.00000     4.17460     7.42246   360.00000     4.18849
     2.80000     6.48524   360.00000     4.17316     7.71627   360.00000     4.18817
     2.90000     6.69255   360.00000     4.17192     7.96172   360.00000     4.18789
     3.00000     6.94101   360.00000     4.17038     8.25576   360.00000     4.18755
     3.10000     7.18972   360.00000     4.16879     8.54992   360.00000     4.18719
     3.20000     7.39763   360.00000     4.16742     8.79567   360.00000     4.18689
     3.30000     7.64682   360.00000     4.16572     9.09008   360.00000     4.18651
     3.40000     7.89629   360.00000     4.16397     9.38463   360.00000     4.18611
     3.50000     8.10485   360.00000     4.16247     9.63071   360.00000     4.18578
     3.60000     8.35486   360.00000     4.16062     9.92553   360.00000     4.18536
     3.70000     8.60516   360.00000     4.15871    10.22050   360.00000     4.18494
     3.80000     8.81444   360.00000     4.15708    10.46695   360.00000     4.18457
     3.90000     9.06533   360.00000     4.15508    10.76221   360.00000     4.18412
     4.00000     9.31655   360.00000     4.15302    11.05764   360.00000     4.18366
     4.10000     9.52660   360.00000     4.15126    11.30448   360.00000     4.18327
     4.20000     9.77846   360.00000     4.14910    11.60023   360.00000     4.18278
     4.30000    10.03067   360.00000     4.14688    11.89616   360.00000     4.18228
     4.40000    10.24157   360.00000     4.14500    12.14342   360.00000     4.18186
     4.50000    10.49446   360.00000     4.14268    12.43969   360.00000     4.18134
     4.60000    10.74774   360.00000     4.14032    12.73615   360.00000     4.18081
     4.70000    11.00142   360.00000     4.13789    13.03281   360.00000     4.18026
     4.80000    11.21357   360.00000     4.13583    13.28069   360.00000     4.17980
     4.90000    11.46800   360.00000     4.13332    13.57772   360.00000     4.17923
     5.00000    11.72285   360.00000     4.13074    13.87497   360.00000     4.17865
     5.10000    11.97814   360.00000     4.12812    14.17243   360.00000     4.17806
     5.20000    12.19167   360.00000     4.12589    14.42098   360.00000     4.17756
     5.30000    12.44779   360.00000     4.12317    14.71885   360.00000     4.17694
     5.40000    12.70437   360.00000     4.12039    15.01694   360.00000     4.17631
     5.50000    12.96142   360.00000     4.11756    15.31527   360.00000     4.17567
     5.60000    13.17645   360.00000     4.11517    15.56457   360.00000     4.17513
     5.70000    13.43441   360.00000     4.11224    15.86333   360.00000     4.17447
     5.80000    13.69287   360.00000     4.10927    16.16235   360.00000     4.17379
     5.90000    13.95185   360.00000     4.10624    16.46161   360.00000     4.17310
     6.00000    14.21136   360.00000     4.10316    16.76113   360.00000     4.17240
     6.10000    14.42847   360.00000     4.10056    17.01144   360.00000     4.17181
     6.20000    14.68898   360.00000     4.09739    17.31144   360.00000     4.17109
     6.30000    14.95004   360.00000     4.09417    17.61171   360.00000     4.17035
     6.40000    15.21167   360.00000     4.09090    17.91226   360.00000     4.16961
     6.50000    15.47389   360.00000     4.08758    18.21309   360.00000     4.16884
     6.60000    15.69331   360.00000     4.08477    18.46450   360.00000     4.16820
     6.70000    15.95663   360.00000     4.08136    18.76585   360.00000     4.16742
     6.80000    16.22056   360.00000     4.07790    19.06749   360.00000     4.16662
     6.90000    16.48512   360.00000     4.07439    19.36943   360.00000     4.16582
     7.00000    16.75031   360.00000     4.07083    19.67168   360.00000     4.16500
     7.10000    17.01616   360.00000     4.06723    19.97423   360.00000     4.16416
     7.20000    17.28267   360.00000     4.06357    20.27710   360.00000     4.16332
     7.30000    17.54986   360.00000     4.05988    20.58028   360.00000     4.16246
     7.40000    17.77350   360.00000     4.05676    20.83367   360.00000     4.16174
     7.50000    18.04196   360.00000     4.05297    21.13745   360.00000     4.16086
     7.60000    18.31113   360.00000     4.04914    21.44156   360.00000     4.15996
     7.70000    18.58102   360.00000     4.04527    21.74601   360.00000     4.15906
     7.80000    18.85165   360.00000     4.04135    22.05080   360.00000     4.15814
     7.90000    19.12303   360.00000     4.03739    22.35593   360.00000     4.15721
     8.00000    19.39518   360.00000     4.03338    22.66142   360.00000     4.15627
     8.10000    19.66810   360.00000     4.02934    22.96726   360.00000     4.15531
     8.20000    19.94180   360.00000     4.02524    23.27347   360.00000     4.15434
     8.30000    20.21631   360.00000     4.02111    23.58004   360.00000     4.15336
     8.40000    20.49164   360.00000     4.01694    23.88699   360.00000     4.15237
     8.50000    20.76779   360.00000     4.01273    24.19431   360.00000     4.15137
     8.60000    21.04479   360.00000     4.00847    24.50202   360.00000     4.15035
     8.70000    21.32265   360.00000     4.00418    24.81011   360.00000     4.14932
     8.80000    21.60137   360.00000     3.99985    25.11860   360.00000     4.14828
     8.90000    21.88098   360.00000     3.99548    25.42748   360.00000     4.14722
     9.00000    22.16149   360.00000     3.99107    25.73677   360.00000     4.14616
     9.10000    22.44291   360.00000     3.98663    26.04647   360.00000     4.14508
     9.20000    22.77195   360.00000     3.98141    26.40783   360.00000     4.14380
     9.30000    23.05540   360.00000     3.97689    26.71843   360.00000     4.14269
     9.40000    23.33980   360.00000     3.97234    27.02946   360.00000     4.14158
     9.50000    23.62518   360.00000     3.96776    27.34092   360.00000     4.14045
     9.60000    23.91155   360.00000     3.96314    27.65282   360.00000     4.13930
     9.70000    24.19892   360.00000     3.95850    27.96516   360.00000     4.13815
     9.80000    24.53501   360.00000     3.95304    28.32964   360.00000     4.13678
     9.90000    24.82460   360.00000     3.94833    28.64296   360.00000     4.13560
    10.00000    25.11525   360.00000     3.94359    28.95674   360.00000     4.13441
    10.10000    25.40696   360.00000     3.93883    29.27098   360.00000     4.13320
    10.20000    25.74818   360.00000     3.93324    29.63772   360.00000     4.13177
    10.30000    26.04225   360.00000     3.92842    29.95299   360.00000     4.13054
    10.40000    26.33743   360.00000     3.92358    30.26874   360.00000     4.12930
    10.50000    26.63374   360.00000     3.91871    30.58498   360.00000     4.12804
    10.60000    26.98041   360.00000     3.91301    30.95409   360.00000     4.12656
    10.70000    27.27921   360.00000     3.90810    31.27141   360.00000     4.12528
    10.80000    27.62883   360.00000     3.90235    31.64179   360.00000     4.12376
    10.90000    27.93020   360.00000     3.89740    31.96021   360.00000     4.12245
    11.00000    28.23279   360.00000     3.89244    32.27915   360.00000     4.12113
    11.10000    28.58687   360.00000     3.88662    32.65145   360.00000     4.11957
    11.20000    28.89213   360.00000     3.88163    32.97154   360.00000     4.11823
    11.30000    29.24937   360.00000     3.87578    33.34520   360.00000     4.11664
    11.40000    29.55737   360.00000     3.87076    33.66645   360.00000     4.11527
    11.50000    29.91786   360.00000     3.86489    34.04150   360.00000     4.11365
    11.60000    30.22867   360.00000     3.85986    34.36395   360.00000     4.11225
    11.70000    30.59248   360.00000     3.85397    34.74041   360.00000     4.11060
    11.80000    30.95811   360.00000     3.84807    35.11765   360.00000     4.10894
    11.90000    31.27339   360.00000     3.84302    35.44200   360.00000     4.10750
    12.00000    31.64247   360.00000     3.83712    35.82070   360.00000     4.10581
    12.10000    32.01343   360.00000     3.83122    36.20021   360.00000     4.10410
    12.20000    32.33333   360.00000     3.82616    36.52653   360.00000     4.10263
    12.30000    32.70786   360.00000     3.82027    36.90755   360.00000     4.10089
    12.40000    33.08433   360.00000     3.81438    37.28941   360.00000     4.09914
    12.50000    33.46278   360.00000     3.80851    37.67210   360.00000     4.09738
    12.60000    33.78916   360.00000     3.80348    38.00118   360.00000     4.09586
    12.70000    34.17132   360.00000     3.79763    38.38546   360.00000     4.09406
    12.80000    34.55551   360.00000     3.79179    38.77060   360.00000     4.09226
    12.90000    34.94174   360.00000     3.78598    39.15662   360.00000     4.09043
    13.00000    35.33003   360.00000     3.78018    39.54353   360.00000     4.08860
    13.10000    35.72041   360.00000     3.77441    39.93134   360.00000     4.08675
    13.20000    36.11288   360.00000     3.76867    40.32004   360.00000     4.08488
    13.30000    36.50747   360.00000     3.76296    40.70967   360.00000     4.08301
    13.40000    36.90418   360.00000     3.75728    41.10021   360.00000     4.08112
    13.50000    37.35978   360.00000     3.75083    41.54733   360.00000     4.07893
    13.60000    37.76109   360.00000     3.74523    41.93989   360.00000     4.07702
    13.70000    38.16458   360.00000     3.73967    42.33339   360.00000     4.07509
    13.80000    38.57024   360.00000     3.73415    42.72786   360.00000     4.07314
    13.90000    39.03611   360.00000     3.72790    43.17952   360.00000     4.07090
    14.00000    39.44647   360.00000     3.72249    43.57608   360.00000     4.06894
    14.10000    39.91773   360.00000     3.71637    44.03015   360.00000     4.06667
    14.20000    40.33282   360.00000     3.71107    44.42885   360.00000     4.06467
    14.30000    40.80949   360.00000     3.70509    44.88538   360.00000     4.06238
    14.40000    41.22932   360.00000     3.69992    45.28625   360.00000     4.06036
    14.50000    41.71142   360.00000     3.69409    45.74529   360.00000     4.05804
    14.60000    42.19642   360.00000     3.68835    46.20569   360.00000     4.05571
    14.70000    42.62352   360.00000     3.68340    46.60996   360.00000     4.05366
    14.80000    43.11393   360.00000     3.67783    47.07294   360.00000     4.05130
    14.90000    43.60721   360.00000     3.67237    47.53731   360.00000     4.04894
    15.00000    44.10336   360.00000     3.66700    48.00308   360.00000     4.04656
    15.10000    44.60236   360.00000     3.66174    48.47026   360.00000     4.04417
    15.20000    45.10419   360.00000     3.65659    48.93887   360.00000     4.04177
    15.30000    45.60883   360.00000     3.65155    49.40891   360.00000     4.03937
    15.40000    46.17953   360.00000     3.64602    49.93916   360.00000     4.03664
    15.50000    46.69007   360.00000     3.64124    50.41228   360.00000     4.03422
    15.60000    47.20335   360.00000     3.63658    50.88688   360.00000     4.03179
    15.70000    47.78365   360.00000     3.63148    51.42229   360.00000     4.02905
    15.80000    48.36732   360.00000     3.62654    51.95958   360.00000     4.02630
    15.90000    48.88924   360.00000     3.62230    52.43900   360.00000     4.02385
    16.00000    49.47914   360.00000     3.61769    52.97988   360.00000     4.02109
    16.10000    50.07224   360.00000     3.61325    53.52267   360.00000     4.01833
    16.20000    50.66848   360.00000     3.60898    54.06739   360.00000     4.01557
    16.30000    51.26780   360.00000     3.60490    54.61404   360.00000     4.01280
    16.40000    51.93693   360.00000     3.60057    55.22348   360.00000     4.00973
    16.50000    52.54250   360.00000     3.59687    55.77423   360.00000     4.00697
    16.60000    53.15093   360.00000     3.59336    56.32694   360.00000     4.00421
    16.70000    53.82991   360.00000     3.58967    56.94314   360.00000     4.00115
    16.80000    54.51221   360.00000     3.58621    57.56176   360.00000     3.99810
    16.90000    55.19771   360.00000     3.58299    58.18282   360.00000     3.99505
    17.00000    55.88631   360.00000     3.58000    58.80630   360.00000     3.99202
    17.10000    56.64696   360.00000     3.57697    59.49475   360.00000     3.98870
    17.20000    57.34169   360.00000     3.57447    60.12334   360.00000     3.98571
    17.30000    58.10883   360.00000     3.57197    60.81740   360.00000     3.98243
    17.40000    58.87917   360.00000     3.56975    61.51439   360.00000     3.97918
    17.50000    59.65256   360.00000     3.56780    62.21429   360.00000     3.97595
    17.60000    60.49938   360.00000     3.56596    62.98097   360.00000     3.97247
    17.70000    61.34952   360.00000     3.56443    63.75108   360.00000     3.96903
    17.80000    62.20283   360.00000     3.56320    64.52460   360.00000     3.96564
    17.90000    63.13048   360.00000     3.56219    65.36624   360.00000     3.96202
    18.00000    64.06152   360.00000     3.56150    66.21179   360.00000     3.95846
    18.10000    64.99580   360.00000     3.56112    67.06120   360.00000     3.95498
    18.20000    66.00528   360.00000     3.56102    67.98006   360.00000     3.95131
    18.30000    67.09058   360.00000     3.56126    68.96925   360.00000     3.94748
    18.40000    68.17974   360.00000     3.56183    69.96327   360.00000     3.94377
    18.50000    69.34550   360.00000     3.56275    71.02864   360.00000     3.93995
    18.60000    70.58856   360.00000     3.56404    72.16619   360.00000     3.93605
    18.70000    71.90963   360.00000     3.56571    73.37668   360.00000     3.93213
    18.80000    73.30948   360.00000     3.56773    74.66086   360.00000     3.92822
    18.90000    74.86292   360.00000     3.57019    76.08739   360.00000     3.92421
    19.00000    76.64615   360.00000     3.57314    77.72627   360.00000     3.92003
    19.10000    78.66199   360.00000     3.57648    79.57986   360.00000     3.91589
    19.20000    81.13875   360.00000     3.58029    81.85755   360.00000     3.91169
    19.30000    84.61143   360.00000     3.58452    85.04996   360.00000     3.90748
    19.40000    90.00000   360.00000     3.58728    90.00000   360.00000     3.90504
    19.50000    90.00000   360.00000     3.58741    90.00000   360.00000     3.90513
    19.60000    90.00000   360.00000     3.58754    90.00000   360.00000     3.90522
    19.70000    90.00000   360.00000     3.58768    90.00000   360.00000     3.90532
    19.80000    90.00000   360.00000     3.58781    90.00000   360.00000     3.90541
    19.90000    90.00000   360.00000     3.58794    90.00000   360.00000     3.90550
    20.00000    90.00000   360.00000     3.58807    90.00000   360.00000     3.90560
    20.10000    90.00000   360.00000     3.58820    90.00000   360.00000     3.90569
    20.20000    90.00000   360.00000     3.58833    90.00000   360.00000     3.90578
    20.30000    90.00000   360.00000     3.58847    90.00000   360.00000     3.90588
    20.40000    90.00000   360.00000     3.58860    90.00000   360.00000     3.90597
    20.50000    90.00000   360.00000     3.58873    90.00000   360.00000     3.90607
    20.60000    90.00000   360.00000     3.58886    90.00000   360.00000     3.90616
    20.70000    90.00000   360.00000     3.58899    90.00000   360.00000     3.90625
    20.80000    90.00000   360.00000     3.58912    90.00000   360.00000     3.90635
    20.90000    90.00000   360.00000     3.58925    90.00000   360.00000     3.90644
    21.00000    90.00000   360.00000     3.58938    90.00000   360.00000     3.90653
    21.10000    90.00000   360.00000     3.58952    90.00000   360.00000     3.90662
    21.20000    90.00000   360.00000     3.58965    90.00000   360.00000     3.90672
    21.30000    90.00000   360.00000     3.58978    90.00000   360.00000     3.90681
    21.40000    90.00000   360.00000     3.58991    90.00000   360.00000     3.90690
    21.50000    90.00000   360.00000     3.59004    90.00000   360.00000     3.90700
    21.60000    90.00000   360.00000     3.59017    90.00000   360.00000     3.90709
    21.70000    90.00000   360.00000     3.59030    90.00000   360.00000     3.90718
    21.80000    90.00000   360.00000     3.59043    90.00000   360.00000     3.90728
    21.90000    90.00000   360.00000     3.59056    90.00000   360.00000     3.90737
    22.00000    90.00000   360.00000     3.59070    90.00000   360.00000     3.90746
    22.10000    90.00000   360.00000     3.59083    90.00000   360.00000     3.90756
    22.20000    90.00000   360.00000     3.59096    90.00000   360.00000     3.90765
    22.30000    90.00000   360.00000     3.59109    90.00000   360.00000     3.90774
    22.40000    90.00000   360.00000     3.59122    90.00000   360.00000     3.90783
    22.50000    90.00000   360.00000     3.59135    90.00000   360.00000     3.90793
    22.60000    90.00000   360.00000     3.59148    90.00000   360.00000     3.90802
    22.70000    90.00000   360.00000     3.59161    90.00000   360.00000     3.90811
    22.80000    90.00000   360.00000     3.59174    90.00000   360.00000     3.90821
    22.90000    90.00000   360.00000     3.59187    90.00000   360.00000     3.90830
    23.00000    90.00000   360.00000     3.59200    90.00000   360.00000     3.90839
    23.10000    90.00000   360.00000     3.59213    90.00000   360.00000     3.90848
    23.20000    90.00000   360.00000     3.59226    90.00000   360.00000     3.90858
    23.30000    90.00000   360.00000     3.59239    90.00000   360.00000     3.90867
    23.40000    90.00000   360.00000     3.59252    90.00000   360.00000     3.90876
    23.50000    90.00000   360.00000     3.59265    90.00000   360.00000     3.90885
    23.60000    90.00000   360.00000     3.59278    90.00000   360.00000     3.90895
    23.70000    90.00000   360.00000     3.59291    90.00000   360.00000     3.90904
    23.80000    90.00000   360.00000     3.59304    90.00000   360.00000     3.90913
    23.90000    90.00000   360.00000     3.59317    90.00000   360.00000     3.90922
    24.00000    90.00000   360.00000     3.59330    90.00000   360.00000     3.90932
    24.10000    90.00000   360.00000     3.59343    90.00000   360.00000     3.90941
    24.20000    90.00000   360.00000     3.59356    90.00000   360.00000     3.90950
    24.30000    90.00000   360.00000     3.59369    90.00000   360.00000     3.90959
    24.40000    90.00000   360.00000     3.59382    90.00000   360.00000     3.90969
    24.50000    90.00000   360.00000     3.59395    90.00000   360.00000     3.90978
    24.60000    90.00000   360.00000     3.59408    90.00000   360.00000     3.90987
    24.70000    90.00000   360.00000     3.59421    90.00000   360.00000     3.90996
    24.80000    90.00000   360.00000     3.59434    90.00000   360.00000     3.91005
    24.90000    90.00000   360.00000     3.59447    90.00000   360.00000     3.91015
    25.00000    90.00000   360.00000     3.59460    90.00000   360.00000     3.91024
    25.10000    90.00000   360.00000     3.59473    90.00000   360.00000     3.91033
    25.20000    90.00000   360.00000     3.59486    90.00000   360.00000     3.91042
    25.30000    90.00000   360.00000     3.59499    90.00000   360.00000     3.91051
    25.40000    90.00000   360.00000     3.59512    90.00000   360.00000     3.91061
    25.50000    90.00000   360.00000     3.59525    90.00000   360.00000     3.91070
    25.60000    90.00000   360.00000     3.59538    90.00000   360.00000     3.91079
    25.70000    90.00000   360.00000     3.59551    90.00000   360.00000     3.91088
    25.80000    90.00000   360.00000     3.59564    90.00000   360.00000     3.91097
    25.90000    90.00000   360.00000     3.59577    90.00000   360.00000     3.91107
    26.00000    90.00000   360.00000     3.59590    90.00000   360.00000     3.91116
    26.10000    90.00000   360.00000     3.59603    90.00000   360.00000     3.91125
    26.20000    90.00000   360.00000     3.59616    90.00000   360.00000     3.91134
    26.30000    90.00000   360.00000     3.59629    90.00000   360.00000     3.91143
    26.40000    90.00000   360.00000     3.59642    90.00000   360.00000     3.91152
    26.50000    90.00000   360.00000     3.59655    90.00000   360.00000     3.91162
    26.60000    90.00000   360.00000     3.59667    90.00000   360.00000     3.91171
    26.70000    90.00000   360.00000     3.59680    90.00000   360.00000     3.91180
    26.80000    90.00000   360.00000     3.59693    90.00000   360.00000     3.91189
    26.90000    90.00000   360.00000     3.59706    90.00000   360.00000     3.91198
    27.00000    90.00000   360.00000     3.59719    90.00000   360.00000     3.91207
    27.10000    90.00000   360.00000     3.59732    90.00000   360.00000     3.91216
    27.20000    90.00000   360.00000     3.59745    90.00000   360.00000     3.91226
    27.30000    90.00000   360.00000     3.59758    90.00000   360.00000     3.91235
    27.40000    90.00000   360.00000     3.59771    90.00000   360.00000     3.91244
    27.50000    90.00000   360.00000     3.59784    90.00000   360.00000     3.91253
    27.60000    90.00000   360.00000     3.59796    90.00000   360.00000     3.91262
    27.70000    90.00000   360.00000     3.59809    90.00000   360.00000     3.91271
    27.80000    90.00000   360.00000     3.59822    90.00000   360.00000     3.91280
    27.90000    90.00000   360.00000     3.59835    90.00000   360.00000     3.91290
    28.00000    90.00000   360.00000     3.59848    90.00000   360.00000     3.91299
    28.10000    90.00000   360.00000     3.59861    90.00000   360.00000     3.91308
    28.20000    90.00000   360.00000     3.59874    90.00000   360.00000     3.91317
    28.30000    90.00000   360.00000     3.59886    90.00000   360.00000     3.91326
    28.40000    90.00000   360.00000     3.59899    90.00000   360.00000     3.91335
    28.50000    90.00000   360.00000     3.59912    90.00000   360.00000     3.91344
    28.60000    90.00000   360.00000     3.59925    90.00000   360.00000     3.91353
    28.70000    90.00000   360.00000     3.59938    90.00000   360.00000     3.91362
    28.80000    90.00000   360.00000     3.59951    90.00000   360.00000     3.91372
    28.90000    90.00000   360.00000     3.59963    90.00000   360.00000     3.91381
    29.00000    90.00000   360.00000     3.59976    90.00000   360.00000     3.91390
    29.10000    90.00000   360.00000     3.59989    90.00000   360.00000     3.91399
    29.20000    90.00000   360.00000     3.60002    90.00000   360.00000     3.91408
    29.30000    90.00000   360.00000     3.60015    90.00000   360.00000     3.91417
    29.40000    90.00000   360.00000     3.60028    90.00000   360.00000     3.91426
    29.50000    90.00000   360.00000     3.60040    90.00000   360.00000     3.91435
    29.60000    90.00000   360.00000     3.60053    90.00000   360.00000     3.91444
    29.70000    90.00000   360.00000     3.60066    90.00000   360.00000     3.91453
    29.80000    90.00000   360.00000     3.60079    90.00000   360.00000     3.91462
    29.90000    90.00000   360.00000     3.60092    90.00000   360.00000     3.91471
    30.00000    90.00000   360.00000     3.60104    90.00000   360.00000     3.91480
    30.10000    90.00000   360.00000     3.60117    90.00000   360.00000     3.91489
    30.20000    90.00000   360.00000     3.60130    90.00000   360.00000     3.91499
    30.30000    90.00000   360.00000     3.60143    90.00000   360.00000     3.91508
    30.40000    90.00000   360.00000     3.60155    90.00000   360.00000     3.91517
    30.50000    90.00000   360.00000     3.60168    90.00000   360.00000     3.91526
    30.60000    90.00000   360.00000     3.60181    90.00000   360.00000     3.91535
    30.70000    90.00000   360.00000     3.60194    90.00000   360.00000     3.91544
    30.80000    90.00000   360.00000     3.60207    90.00000   360.00000     3.91553
    30.90000    90.00000   360.00000     3.60219    90.00000   360.00000     3.91562
    31.00000    90.00000   360.00000     3.60232    90.00000   360.00000     3.91571
    31.10000    90.00000   360.00000     3.60245    90.00000   360.00000     3.91580
    31.20000    90.00000   360.00000     3.60258    90.00000   360.00000     3.91589
    31.30000    90.00000   360.00000     3.60270    90.00000   360.00000     3.91598
    31.40000    90.00000   360.00000     3.60283    90.00000   360.00000     3.91607
    31.50000    90.00000   360.00000     3.60296    90.00000   360.00000     3.91616
    31.60000    90.00000   360.00000     3.60308    90.00000   360.00000     3.91625
    31.70000    90.00000   360.00000     3.60321    90.00000   360.00000     3.91634
    31.80000    90.00000   360.00000     3.60334    90.00000   360.00000     3.91643
    31.90000    90.00000   360.00000     3.60347    90.00000   360.00000     3.91652
    32.00000    90.00000   360.00000     3.60359    90.00000   360.00000     3.91661
    32.10000    90.00000   360.00000     3.60372    90.00000   360.00000     3.91670
    32.20000    90.00000   360.00000     3.60385    90.00000   360.00000     3.91679
    32.30000    90.00000   360.00000     3.60398    90.00000   360.00000     3.91688
    32.40000    90.00000   360.00000     3.60410    90.00000   360.00000     3.91697
    32.50000    90.00000   360.00000     3.60423    90.00000   360.00000     3.91706
    32.60000    90.00000   360.00000     3.60436    90.00000   360.00000     3.91715
    32.70000    90.00000   360.00000     3.60448    90.00000   360.00000     3.91724
    32.80000    90.00000   360.00000     3.60461    90.00000   360.00000     3.91733
    32.90000    90.00000   360.00000     3.60474    90.00000   360.00000     3.91742
    33.00000    90.00000   360.00000     3.60486    90.00000   360.00000     3.91751
    33.10000    90.00000   360.00000     3.60499    90.00000   360.00000     3.91760
    33.20000    90.00000   360.00000     3.60512    90.00000   360.00000     3.91769
    33.30000    90.00000   360.00000     3.60524    90.00000   360.00000     3.91778
    33.40000    90.00000   360.00000     3.60537    90.00000   360.00000     3.91787
    33.50000    90.00000   360.00000     3.60550    90.00000   360.00000     3.91796
    33.60000    90.00000   360.00000     3.60562    90.00000   360.00000     3.91805
    33.70000    90.00000   360.00000     3.60575    90.00000   360.00000     3.91814
    33.80000    90.00000   360.00000     3.60588    90.00000   360.00000     3.91823
    33.90000    90.00000   360.00000     3.60600    90.00000   360.00000     3.91832
    34.00000    90.00000   360.00000     3.60613    90.00000   360.00000     3.91840
    34.10000    90.00000   360.00000     3.60626    90.00000   360.00000     3.91849
    34.20000    90.00000   360.00000     3.60638    90.00000   360.00000     3.91858
    34.30000    90.00000   360.00000     3.60651    90.00000   360.00000     3.91867
    34.40000    90.00000   360.00000     3.60663    90.00000   360.00000     3.91876
    34.50000    90.00000   360.00000     3.60676    90.00000   360.00000     3.91885
    34.60000    90.00000   360.00000     3.60689    90.00000   360.00000     3.91894
    34.70000    90.00000   360.00000     3.60701    90.00000   360.00000     3.91903
    34.80000    90.00000   360.00000     3.60714    90.00000   360.00000     3.91912
    34.90000    90.00000   360.00000     3.60727    90.00000   360.00000     3.91921
    35.00000    90.00000   360.00000     3.60739    90.00000   360.00000     3.91930
    35.10000    90.00000   360.00000     3.60752    90.00000   360.00000     3.91939
    35.20000    90.00000   360.00000     3.60764    90.00000   360.00000     3.91948
    35.30000    90.00000   360.00000     3.60777    90.00000   360.00000     3.91956
    35.40000    90.00000   360.00000     3.60790    90.00000   360.00000     3.91965
    35.50000    90.00000   360.00000     3.60802    90.00000   360.00000     3.91974
    35.60000    90.00000   360.00000     3.60815    90.00000   360.00000     3.91983
    35.70000    90.00000   360.00000     3.60827    90.00000   360.00000     3.91992
    35.80000    90.00000   360.00000     3.60840    90.00000   360.00000     3.92001
    35.90000    90.00000   360.00000     3.60852    90.00000   360.00000     3.92010
    36.00000    90.00000   360.00000     3.60865    90.00000   360.00000     3.92019
    36.10000    90.00000   360.00000     3.60878    90.00000   360.00000     3.92028
    36.20000    90.00000   360.00000     3.60890    90.00000   360.00000     3.92036
    36.30000    90.00000   360.00000     3.60903    90.00000   360.00000     3.92045
    36.40000    90.00000   360.00000     3.60915    90.00000   360.00000     3.92054
    36.50000    90.00000   360.00000     3.60928    90.00000   360.00000     3.92063
    36.60000    90.00000   360.00000     3.60940    90.00000   360.00000     3.92072
    36.70000    90.00000   360.00000     3.60953    90.00000   360.00000     3.92081
    36.80000    90.00000   360.00000     3.60965    90.00000   360.00000     3.92090
    36.90000    90.00000   360.00000     3.60978    90.00000   360.00000     3.92099
    37.00000    90.00000   360.00000     3.60990    90.00000   360.00000     3.92107
    37.10000    90.00000   360.00000     3.61003    90.00000   360.00000     3.92116
    37.20000    90.00000   360.00000     3.61016    90.00000   360.00000     3.92125
    37.30000    90.00000   360.00000     3.61028    90.00000   360.00000     3.92134
    37.40000    90.00000   360.00000     3.61041    90.00000   360.00000     3.92143
    37.50000    90.00000   360.00000     3.61053    90.00000   360.00000     3.92152
    37.60000    90.00000   360.00000     3.61066    90.00000   360.00000     3.92160
    37.70000    90.00000   360.00000     3.61078    90.00000   360.00000     3.92169
    37.80000    90.00000   360.00000     3.61091    90.00000   360.00000     3.92178
    37.90000    90.00000   360.00000     3.61103    90.00000   360.00000     3.92187
    38.00000    90.00000   360.00000     3.61116    90.00000   360.00000     3.92196
    38.10000    90.00000   360.00000     3.61128    90.00000   360.00000     3.92205
    38.20000    90.00000   360.00000     3.61141    90.00000   360.00000     3.92213
    38.30000    90.00000   360.00000     3.61153    90.00000   360.00000     3.92222
    38.40000    90.00000   360.00000     3.61166    90.00000   360.00000     3.92231
    38.50000    90.00000   360.00000     3.61178    90.00000   360.00000     3.92240
    38.60000    90.00000   360.00000     3.61191    90.00000   360.00000     3.92249
    38.70000    90.00000   360.00000     3.61203    90.00000   360.00000     3.92258
    38.80000    90.00000   360.00000     3.61215    90.00000   360.00000     3.92266
    38.90000    90.00000   360.00000     3.61228    90.00000   360.00000     3.92275
    39.00000    90.00000   360.00000     3.61240    90.00000   360.00000     3.92284
    39.10000    90.00000   360.00000     3.61253    90.00000   360.00000     3.92293
    39.20000    90.00000   360.00000     3.61265    90.00000   360.00000     3.92301
    39.30000    90.00000   360.00000     3.61278    90.00000   360.00000     3.92310
    39.40000    90.00000   360.00000     3.61290    90.00000   360.00000     3.92319
    39.50000    90.00000   360.00000     3.61303    90.00000   360.00000     3.92328
    39.60000    90.00000   360.00000     3.61315    90.00000   360.00000     3.92337
    39.70000    90.00000   360.00000     3.61327    90.00000   360.00000     3.92345
    39.80000    90.00000   360.00000     3.61340    90.00000   360.00000     3.92354
    39.90000    90.00000   360.00000     3.61352    90.00000   360.00000     3.92363
    40.00000    90.00000   360.00000     3.61365    90.00000   360.00000     3.92372
