 # applied field (T), theta (degree), phi (degree), abs [muB/unitcell], abs [T]
       0.00000000       0.00000000       0.00000000      52.69229218       1.81311232
       0.10000000       0.34126321     360.00000000      52.69229342       1.81311236
       0.20000000       0.68252706     360.00000000      52.69229716       1.81311249
       0.30000000       1.08056940     360.00000000      52.69230419       1.81311274
       0.40000000       1.42183688     360.00000000      52.69231319       1.81311304
       0.50000000       1.76310705     360.00000000      52.69232470       1.81311344
       0.60000000       2.10438055     360.00000000      52.69233874       1.81311392
       0.70000000       2.50243759     360.00000000      52.69235719       1.81311456
       0.80000000       2.84372055     360.00000000      52.69237660       1.81311523
       0.90000000       3.18500890     360.00000000      52.69239858       1.81311598
       1.00000000       3.52630327     360.00000000      52.69242316       1.81311683
       1.10000000       3.86760431     360.00000000      52.69245037       1.81311776
       1.20000000       4.26569774     360.00000000      52.69248351       1.81311891
       1.30000000       4.60701546     360.00000000      52.69251633       1.81312003
       1.40000000       4.94834188     360.00000000      52.69255187       1.81312126
       1.50000000       5.34646754     360.00000000      52.69259436       1.81312272
       1.60000000       5.68781503     360.00000000      52.69263574       1.81312414
       1.70000000       6.02917326     360.00000000      52.69267994       1.81312566
       1.80000000       6.37054285     360.00000000      52.69272700       1.81312728
       1.90000000       6.76872234     360.00000000      52.69278251       1.81312919
       2.00000000       7.11011878     360.00000000      52.69283577       1.81313103
       2.10000000       7.45152859     360.00000000      52.69289203       1.81313296
       2.20000000       7.84975763     360.00000000      52.69295799       1.81313523
       2.30000000       8.19119863     360.00000000      52.69302077       1.81313739
       2.40000000       8.58946585     360.00000000      52.69309414       1.81313992
       2.50000000       8.93094100     360.00000000      52.69316368       1.81314231
       2.60000000       9.27243289     360.00000000      52.69323649       1.81314481
       2.70000000       9.67076210     360.00000000      52.69332132       1.81314773
       2.80000000      10.01229242     360.00000000      52.69340126       1.81315048
       2.90000000      10.41066825     360.00000000      52.69349426       1.81315368
       3.00000000      10.75223992     360.00000000      52.69358162       1.81315669
       3.10000000      11.15066577     360.00000000      52.69368312       1.81316018
       3.20000000      11.54911998     360.00000000      52.69378926       1.81316384
       3.30000000      11.89076091     360.00000000      52.69388851       1.81316725
       3.40000000      12.28927029     360.00000000      52.69400369       1.81317121
       3.50000000      12.63095984     360.00000000      52.69411110       1.81317491
       3.60000000      13.02952770     360.00000000      52.69423566       1.81317920
       3.70000000      13.42812844     360.00000000      52.69436535       1.81318366
       3.80000000      13.82676300     360.00000000      52.69450028       1.81318830
       3.90000000      14.16856255     360.00000000      52.69462546       1.81319261
       4.00000000      14.56726233     360.00000000      52.69477053       1.81319760
       4.10000000      14.96599860     360.00000000      52.69492113       1.81320278
       4.20000000      15.36477225     360.00000000      52.69507737       1.81320816
       4.30000000      15.76358421     360.00000000      52.69523936       1.81321373
       4.40000000      16.16243536     360.00000000      52.69540720       1.81321951
       4.50000000      16.56132659     360.00000000      52.69558098       1.81322549
       4.60000000      16.96025878     360.00000000      52.69576081       1.81323168
       4.70000000      17.35923280     360.00000000      52.69594679       1.81323808
       4.80000000      17.81517092     360.00000000      52.69616056       1.81324543
       4.90000000      18.21423753     360.00000000      52.69635990       1.81325229
       5.00000000      18.61334863     360.00000000      52.69656568       1.81325937
       5.10000000      19.01250504     360.00000000      52.69677798       1.81326668
       5.20000000      19.46865614     360.00000000      52.69702179       1.81327507
       5.30000000      19.86791243     360.00000000      52.69724822       1.81328286
       5.40000000      20.32417993     360.00000000      52.69750815       1.81329180
       5.50000000      20.78051123     360.00000000      52.69777678       1.81330104
       5.60000000      21.17992760     360.00000000      52.69802548       1.81330960
       5.70000000      21.63638139     360.00000000      52.69831077       1.81331942
       5.80000000      22.09290210     360.00000000      52.69860502       1.81332954
       5.90000000      22.54949077     360.00000000      52.69890830       1.81333998
       6.00000000      23.00614840     360.00000000      52.69922067       1.81335073
       6.10000000      23.51989915     360.00000000      52.69957609       1.81336296
       6.20000000      23.97670661     360.00000000      52.69990784       1.81337437
       6.30000000      24.43358595     360.00000000      52.70024881       1.81338611
       6.40000000      24.94758986     360.00000000      52.70063623       1.81339944
       6.50000000      25.46168727     360.00000000      52.70103515       1.81341316
       6.60000000      25.97587929     360.00000000      52.70144554       1.81342728
       6.70000000      26.49016695     360.00000000      52.70186737       1.81344180
       6.80000000      27.00455121     360.00000000      52.70230058       1.81345671
       6.90000000      27.57614014     360.00000000      52.70278840       1.81347349
       7.00000000      28.09073133     360.00000000      52.70324526       1.81348921
       7.10000000      28.66255242     360.00000000      52.70375891       1.81350689
       7.20000000      29.23449712     360.00000000      52.70428583       1.81352502
       7.30000000      29.86372348     360.00000000      52.70487413       1.81354526
       7.40000000      30.49310156     360.00000000      52.70547766       1.81356603
       7.50000000      31.12263199     360.00000000      52.70609599       1.81358730
       7.60000000      31.75231519     360.00000000      52.70672860       1.81360907
       7.70000000      32.43936623     360.00000000      52.70742843       1.81363315
       7.80000000      33.12659974     360.00000000      52.70814371       1.81365776
       7.90000000      33.87126234     360.00000000      52.70892950       1.81368480
       8.00000000      34.67340319     360.00000000      52.70978829       1.81371435
       8.10000000      35.47579031     360.00000000      52.71066376       1.81374448
       8.20000000      36.39302574     360.00000000      52.71167289       1.81377920
       8.30000000      37.31057660     360.00000000      52.71269862       1.81381450
       8.40000000      38.34312526     360.00000000      52.71386032       1.81385447
       8.50000000      39.49079333     360.00000000      52.71515842       1.81389914
       8.60000000      90.00000000     360.00000000      52.73795364       1.81468351
       8.70000000      90.00000000     360.00000000      52.73799708       1.81468500
       8.80000000      90.00000000     360.00000000      52.73804053       1.81468650
       8.90000000      90.00000000     360.00000000      52.73808398       1.81468799
       9.00000000      90.00000000     360.00000000      52.73812744       1.81468949
       9.10000000      90.00000000     360.00000000      52.73817090       1.81469098
       9.20000000      90.00000000     360.00000000      52.73821437       1.81469248
       9.30000000      90.00000000     360.00000000      52.73825785       1.81469397
       9.40000000      90.00000000     360.00000000      52.73830133       1.81469547
       9.50000000      90.00000000     360.00000000      52.73834481       1.81469697
       9.60000000      90.00000000     360.00000000      52.73838830       1.81469846
       9.70000000      90.00000000     360.00000000      52.73843179       1.81469996
       9.80000000      90.00000000     360.00000000      52.73847529       1.81470146
       9.90000000      90.00000000     360.00000000      52.73851880       1.81470295
      10.00000000      90.00000000     360.00000000      52.73856231       1.81470445
      10.10000000      90.00000000     360.00000000      52.73860582       1.81470595
      10.20000000      90.00000000     360.00000000      52.73864935       1.81470745
      10.30000000      90.00000000     360.00000000      52.73869287       1.81470894
      10.40000000      90.00000000     360.00000000      52.73873640       1.81471044
      10.50000000      90.00000000     360.00000000      52.73877994       1.81471194
      10.60000000      90.00000000     360.00000000      52.73882348       1.81471344
      10.70000000      90.00000000     360.00000000      52.73886703       1.81471494
      10.80000000      90.00000000     360.00000000      52.73891058       1.81471644
      10.90000000      90.00000000     360.00000000      52.73895414       1.81471793
      11.00000000      90.00000000     360.00000000      52.73899770       1.81471943
      11.10000000      90.00000000     360.00000000      52.73904127       1.81472093
      11.20000000      90.00000000     360.00000000      52.73908485       1.81472243
      11.30000000      90.00000000     360.00000000      52.73912843       1.81472393
      11.40000000      90.00000000     360.00000000      52.73917201       1.81472543
      11.50000000      90.00000000     360.00000000      52.73921560       1.81472693
      11.60000000      90.00000000     360.00000000      52.73925919       1.81472843
      11.70000000      90.00000000     360.00000000      52.73930279       1.81472993
      11.80000000      90.00000000     360.00000000      52.73934640       1.81473143
      11.90000000      90.00000000     360.00000000      52.73939001       1.81473293
      12.00000000      90.00000000     360.00000000      52.73943363       1.81473443
      12.10000000      90.00000000     360.00000000      52.73947725       1.81473593
      12.20000000      90.00000000     360.00000000      52.73952087       1.81473743
      12.30000000      90.00000000     360.00000000      52.73956451       1.81473894
      12.40000000      90.00000000     360.00000000      52.73960814       1.81474044
      12.50000000      90.00000000     360.00000000      52.73965179       1.81474194
      12.60000000      90.00000000     360.00000000      52.73969543       1.81474344
      12.70000000      90.00000000     360.00000000      52.73973909       1.81474494
      12.80000000      90.00000000     360.00000000      52.73978274       1.81474645
      12.90000000      90.00000000     360.00000000      52.73982641       1.81474795
      13.00000000      90.00000000     360.00000000      52.73987008       1.81474945
      13.10000000      90.00000000     360.00000000      52.73991375       1.81475095
      13.20000000      90.00000000     360.00000000      52.73995743       1.81475246
      13.30000000      90.00000000     360.00000000      52.74000112       1.81475396
      13.40000000      90.00000000     360.00000000      52.74004481       1.81475546
      13.50000000      90.00000000     360.00000000      52.74008850       1.81475697
      13.60000000      90.00000000     360.00000000      52.74013220       1.81475847
      13.70000000      90.00000000     360.00000000      52.74017591       1.81475997
      13.80000000      90.00000000     360.00000000      52.74021962       1.81476148
      13.90000000      90.00000000     360.00000000      52.74026334       1.81476298
      14.00000000      90.00000000     360.00000000      52.74030706       1.81476449
      14.10000000      90.00000000     360.00000000      52.74035079       1.81476599
      14.20000000      90.00000000     360.00000000      52.74039452       1.81476750
      14.30000000      90.00000000     360.00000000      52.74043826       1.81476900
      14.40000000      90.00000000     360.00000000      52.74048200       1.81477051
      14.50000000      90.00000000     360.00000000      52.74052575       1.81477201
      14.60000000      90.00000000     360.00000000      52.74056950       1.81477352
      14.70000000      90.00000000     360.00000000      52.74061326       1.81477502
      14.80000000      90.00000000     360.00000000      52.74065702       1.81477653
      14.90000000      90.00000000     360.00000000      52.74070079       1.81477804
      15.00000000      90.00000000     360.00000000      52.74074457       1.81477954
      15.10000000      90.00000000     360.00000000      52.74078835       1.81478105
      15.20000000      90.00000000     360.00000000      52.74083214       1.81478255
      15.30000000      90.00000000     360.00000000      52.74087593       1.81478406
      15.40000000      90.00000000     360.00000000      52.74091972       1.81478557
      15.50000000      90.00000000     360.00000000      52.74096352       1.81478708
      15.60000000      90.00000000     360.00000000      52.74100733       1.81478858
      15.70000000      90.00000000     360.00000000      52.74105114       1.81479009
      15.80000000      90.00000000     360.00000000      52.74109496       1.81479160
      15.90000000      90.00000000     360.00000000      52.74113878       1.81479311
      16.00000000      90.00000000     360.00000000      52.74118261       1.81479461
      16.10000000      90.00000000     360.00000000      52.74122645       1.81479612
      16.20000000      90.00000000     360.00000000      52.74127028       1.81479763
      16.30000000      90.00000000     360.00000000      52.74131413       1.81479914
      16.40000000      90.00000000     360.00000000      52.74135798       1.81480065
      16.50000000      90.00000000     360.00000000      52.74140183       1.81480216
      16.60000000      90.00000000     360.00000000      52.74144569       1.81480367
      16.70000000      90.00000000     360.00000000      52.74148956       1.81480518
      16.80000000      90.00000000     360.00000000      52.74153343       1.81480669
      16.90000000      90.00000000     360.00000000      52.74157731       1.81480820
      17.00000000      90.00000000     360.00000000      52.74162119       1.81480971
      17.10000000      90.00000000     360.00000000      52.74166507       1.81481122
      17.20000000      90.00000000     360.00000000      52.74170897       1.81481273
      17.30000000      90.00000000     360.00000000      52.74175286       1.81481424
      17.40000000      90.00000000     360.00000000      52.74179677       1.81481575
      17.50000000      90.00000000     360.00000000      52.74184067       1.81481726
      17.60000000      90.00000000     360.00000000      52.74188459       1.81481877
      17.70000000      90.00000000     360.00000000      52.74192851       1.81482028
      17.80000000      90.00000000     360.00000000      52.74197243       1.81482179
      17.90000000      90.00000000     360.00000000      52.74201636       1.81482330
      18.00000000      90.00000000     360.00000000      52.74206030       1.81482481
      18.10000000      90.00000000     360.00000000      52.74210424       1.81482633
      18.20000000      90.00000000     360.00000000      52.74214818       1.81482784
      18.30000000      90.00000000     360.00000000      52.74219213       1.81482935
      18.40000000      90.00000000     360.00000000      52.74223609       1.81483086
      18.50000000      90.00000000     360.00000000      52.74228005       1.81483238
      18.60000000      90.00000000     360.00000000      52.74232402       1.81483389
      18.70000000      90.00000000     360.00000000      52.74236799       1.81483540
      18.80000000      90.00000000     360.00000000      52.74241197       1.81483692
      18.90000000      90.00000000     360.00000000      52.74245595       1.81483843
      19.00000000      90.00000000     360.00000000      52.74249994       1.81483994
      19.10000000      90.00000000     360.00000000      52.74254393       1.81484146
      19.20000000      90.00000000     360.00000000      52.74258793       1.81484297
      19.30000000      90.00000000     360.00000000      52.74263194       1.81484448
      19.40000000      90.00000000     360.00000000      52.74267595       1.81484600
      19.50000000      90.00000000     360.00000000      52.74271996       1.81484751
      19.60000000      90.00000000     360.00000000      52.74276398       1.81484903
      19.70000000      90.00000000     360.00000000      52.74280801       1.81485054
      19.80000000      90.00000000     360.00000000      52.74285204       1.81485206
      19.90000000      90.00000000     360.00000000      52.74289607       1.81485357
      20.00000000      90.00000000     360.00000000      52.74294012       1.81485509
      20.10000000      90.00000000     360.00000000      52.74298416       1.81485660
      20.20000000      90.00000000     360.00000000      52.74302822       1.81485812
      20.30000000      90.00000000     360.00000000      52.74307227       1.81485964
      20.40000000      90.00000000     360.00000000      52.74311634       1.81486115
      20.50000000      90.00000000     360.00000000      52.74316041       1.81486267
      20.60000000      90.00000000     360.00000000      52.74320448       1.81486419
      20.70000000      90.00000000     360.00000000      52.74324856       1.81486570
      20.80000000      90.00000000     360.00000000      52.74329265       1.81486722
      20.90000000      90.00000000     360.00000000      52.74333674       1.81486874
      21.00000000      90.00000000     360.00000000      52.74338083       1.81487025
      21.10000000      90.00000000     360.00000000      52.74342493       1.81487177
      21.20000000      90.00000000     360.00000000      52.74346904       1.81487329
      21.30000000      90.00000000     360.00000000      52.74351315       1.81487481
      21.40000000      90.00000000     360.00000000      52.74355727       1.81487632
      21.50000000      90.00000000     360.00000000      52.74360139       1.81487784
      21.60000000      90.00000000     360.00000000      52.74364552       1.81487936
      21.70000000      90.00000000     360.00000000      52.74368965       1.81488088
      21.80000000      90.00000000     360.00000000      52.74373379       1.81488240
      21.90000000      90.00000000     360.00000000      52.74377793       1.81488392
      22.00000000      90.00000000     360.00000000      52.74382208       1.81488544
      22.10000000      90.00000000     360.00000000      52.74386624       1.81488696
      22.20000000      90.00000000     360.00000000      52.74391040       1.81488848
      22.30000000      90.00000000     360.00000000      52.74395456       1.81489000
      22.40000000      90.00000000     360.00000000      52.74399873       1.81489152
      22.50000000      90.00000000     360.00000000      52.74404291       1.81489304
      22.60000000      90.00000000     360.00000000      52.74408709       1.81489456
      22.70000000      90.00000000     360.00000000      52.74413128       1.81489608
      22.80000000      90.00000000     360.00000000      52.74417547       1.81489760
      22.90000000      90.00000000     360.00000000      52.74421967       1.81489912
      23.00000000      90.00000000     360.00000000      52.74426387       1.81490064
      23.10000000      90.00000000     360.00000000      52.74430808       1.81490216
      23.20000000      90.00000000     360.00000000      52.74435230       1.81490368
      23.30000000      90.00000000     360.00000000      52.74439652       1.81490520
      23.40000000      90.00000000     360.00000000      52.74444074       1.81490672
      23.50000000      90.00000000     360.00000000      52.74448497       1.81490825
      23.60000000      90.00000000     360.00000000      52.74452921       1.81490977
      23.70000000      90.00000000     360.00000000      52.74457345       1.81491129
      23.80000000      90.00000000     360.00000000      52.74461769       1.81491281
      23.90000000      90.00000000     360.00000000      52.74466195       1.81491434
      24.00000000      90.00000000     360.00000000      52.74470620       1.81491586
      24.10000000      90.00000000     360.00000000      52.74475047       1.81491738
      24.20000000      90.00000000     360.00000000      52.74479473       1.81491891
      24.30000000      90.00000000     360.00000000      52.74483901       1.81492043
      24.40000000      90.00000000     360.00000000      52.74488329       1.81492195
      24.50000000      90.00000000     360.00000000      52.74492757       1.81492348
      24.60000000      90.00000000     360.00000000      52.74497186       1.81492500
      24.70000000      90.00000000     360.00000000      52.74501616       1.81492652
      24.80000000      90.00000000     360.00000000      52.74506046       1.81492805
      24.90000000      90.00000000     360.00000000      52.74510476       1.81492957
      25.00000000      90.00000000     360.00000000      52.74514907       1.81493110
      25.10000000      90.00000000     360.00000000      52.74519339       1.81493262
      25.20000000      90.00000000     360.00000000      52.74523771       1.81493415
      25.30000000      90.00000000     360.00000000      52.74528204       1.81493567
      25.40000000      90.00000000     360.00000000      52.74532637       1.81493720
      25.50000000      90.00000000     360.00000000      52.74537071       1.81493872
      25.60000000      90.00000000     360.00000000      52.74541505       1.81494025
      25.70000000      90.00000000     360.00000000      52.74545940       1.81494178
      25.80000000      90.00000000     360.00000000      52.74550376       1.81494330
      25.90000000      90.00000000     360.00000000      52.74554812       1.81494483
      26.00000000      90.00000000     360.00000000      52.74559248       1.81494636
      26.10000000      90.00000000     360.00000000      52.74563686       1.81494788
      26.20000000      90.00000000     360.00000000      52.74568123       1.81494941
      26.30000000      90.00000000     360.00000000      52.74572561       1.81495094
      26.40000000      90.00000000     360.00000000      52.74577000       1.81495246
      26.50000000      90.00000000     360.00000000      52.74581439       1.81495399
      26.60000000      90.00000000     360.00000000      52.74585879       1.81495552
      26.70000000      90.00000000     360.00000000      52.74590319       1.81495705
      26.80000000      90.00000000     360.00000000      52.74594760       1.81495858
      26.90000000      90.00000000     360.00000000      52.74599202       1.81496010
      27.00000000      90.00000000     360.00000000      52.74603644       1.81496163
      27.10000000      90.00000000     360.00000000      52.74608086       1.81496316
      27.20000000      90.00000000     360.00000000      52.74612529       1.81496469
      27.30000000      90.00000000     360.00000000      52.74616973       1.81496622
      27.40000000      90.00000000     360.00000000      52.74621417       1.81496775
      27.50000000      90.00000000     360.00000000      52.74625862       1.81496928
      27.60000000      90.00000000     360.00000000      52.74630307       1.81497081
      27.70000000      90.00000000     360.00000000      52.74634753       1.81497234
      27.80000000      90.00000000     360.00000000      52.74639199       1.81497387
      27.90000000      90.00000000     360.00000000      52.74643646       1.81497540
      28.00000000      90.00000000     360.00000000      52.74648093       1.81497693
      28.10000000      90.00000000     360.00000000      52.74652541       1.81497846
      28.20000000      90.00000000     360.00000000      52.74656990       1.81497999
      28.30000000      90.00000000     360.00000000      52.74661439       1.81498152
      28.40000000      90.00000000     360.00000000      52.74665889       1.81498305
      28.50000000      90.00000000     360.00000000      52.74670339       1.81498458
      28.60000000      90.00000000     360.00000000      52.74674789       1.81498611
      28.70000000      90.00000000     360.00000000      52.74679241       1.81498764
      28.80000000      90.00000000     360.00000000      52.74683692       1.81498918
      28.90000000      90.00000000     360.00000000      52.74688145       1.81499071
      29.00000000      90.00000000     360.00000000      52.74692598       1.81499224
      29.10000000      90.00000000     360.00000000      52.74697051       1.81499377
      29.20000000      90.00000000     360.00000000      52.74701505       1.81499531
      29.30000000      90.00000000     360.00000000      52.74705959       1.81499684
      29.40000000      90.00000000     360.00000000      52.74710415       1.81499837
      29.50000000      90.00000000     360.00000000      52.74714870       1.81499990
      29.60000000      90.00000000     360.00000000      52.74719326       1.81500144
      29.70000000      90.00000000     360.00000000      52.74723783       1.81500297
      29.80000000      90.00000000     360.00000000      52.74728240       1.81500450
      29.90000000      90.00000000     360.00000000      52.74732698       1.81500604
      30.00000000      90.00000000     360.00000000      52.74737156       1.81500757
      30.10000000      90.00000000     360.00000000      52.74741615       1.81500911
      30.20000000      90.00000000     360.00000000      52.74746075       1.81501064
      30.30000000      90.00000000     360.00000000      52.74750534       1.81501218
      30.40000000      90.00000000     360.00000000      52.74754995       1.81501371
      30.50000000      90.00000000     360.00000000      52.74759456       1.81501525
      30.60000000      90.00000000     360.00000000      52.74763918       1.81501678
      30.70000000      90.00000000     360.00000000      52.74768380       1.81501832
      30.80000000      90.00000000     360.00000000      52.74772842       1.81501985
      30.90000000      90.00000000     360.00000000      52.74777306       1.81502139
      31.00000000      90.00000000     360.00000000      52.74781770       1.81502292
      31.10000000      90.00000000     360.00000000      52.74786234       1.81502446
      31.20000000      90.00000000     360.00000000      52.74790699       1.81502600
      31.30000000      90.00000000     360.00000000      52.74795164       1.81502753
      31.40000000      90.00000000     360.00000000      52.74799630       1.81502907
      31.50000000      90.00000000     360.00000000      52.74804097       1.81503061
      31.60000000      90.00000000     360.00000000      52.74808564       1.81503214
      31.70000000      90.00000000     360.00000000      52.74813031       1.81503368
      31.80000000      90.00000000     360.00000000      52.74817500       1.81503522
      31.90000000      90.00000000     360.00000000      52.74821968       1.81503676
      32.00000000      90.00000000     360.00000000      52.74826438       1.81503829
      32.10000000      90.00000000     360.00000000      52.74830907       1.81503983
      32.20000000      90.00000000     360.00000000      52.74835378       1.81504137
      32.30000000      90.00000000     360.00000000      52.74839849       1.81504291
      32.40000000      90.00000000     360.00000000      52.74844320       1.81504445
      32.50000000      90.00000000     360.00000000      52.74848792       1.81504599
      32.60000000      90.00000000     360.00000000      52.74853265       1.81504752
      32.70000000      90.00000000     360.00000000      52.74857738       1.81504906
      32.80000000      90.00000000     360.00000000      52.74862211       1.81505060
      32.90000000      90.00000000     360.00000000      52.74866686       1.81505214
      33.00000000      90.00000000     360.00000000      52.74871160       1.81505368
      33.10000000      90.00000000     360.00000000      52.74875636       1.81505522
      33.20000000      90.00000000     360.00000000      52.74880111       1.81505676
      33.30000000      90.00000000     360.00000000      52.74884588       1.81505830
      33.40000000      90.00000000     360.00000000      52.74889065       1.81505984
      33.50000000      90.00000000     360.00000000      52.74893542       1.81506138
      33.60000000      90.00000000     360.00000000      52.74898020       1.81506293
      33.70000000      90.00000000     360.00000000      52.74902499       1.81506447
      33.80000000      90.00000000     360.00000000      52.74906978       1.81506601
      33.90000000      90.00000000     360.00000000      52.74911458       1.81506755
      34.00000000      90.00000000     360.00000000      52.74915938       1.81506909
      34.10000000      90.00000000     360.00000000      52.74920419       1.81507063
      34.20000000      90.00000000     360.00000000      52.74924900       1.81507217
      34.30000000      90.00000000     360.00000000      52.74929382       1.81507372
      34.40000000      90.00000000     360.00000000      52.74933865       1.81507526
      34.50000000      90.00000000     360.00000000      52.74938348       1.81507680
      34.60000000      90.00000000     360.00000000      52.74942831       1.81507834
      34.70000000      90.00000000     360.00000000      52.74947315       1.81507989
      34.80000000      90.00000000     360.00000000      52.74951800       1.81508143
      34.90000000      90.00000000     360.00000000      52.74956285       1.81508297
      35.00000000      90.00000000     360.00000000      52.74960771       1.81508452
      35.10000000      90.00000000     360.00000000      52.74965257       1.81508606
      35.20000000      90.00000000     360.00000000      52.74969744       1.81508760
      35.30000000      90.00000000     360.00000000      52.74974231       1.81508915
      35.40000000      90.00000000     360.00000000      52.74978719       1.81509069
      35.50000000      90.00000000     360.00000000      52.74983208       1.81509224
      35.60000000      90.00000000     360.00000000      52.74987697       1.81509378
      35.70000000      90.00000000     360.00000000      52.74992187       1.81509533
      35.80000000      90.00000000     360.00000000      52.74996677       1.81509687
      35.90000000      90.00000000     360.00000000      52.75001167       1.81509842
      36.00000000      90.00000000     360.00000000      52.75005659       1.81509996
      36.10000000      90.00000000     360.00000000      52.75010151       1.81510151
      36.20000000      90.00000000     360.00000000      52.75014643       1.81510305
      36.30000000      90.00000000     360.00000000      52.75019136       1.81510460
      36.40000000      90.00000000     360.00000000      52.75023629       1.81510615
      36.50000000      90.00000000     360.00000000      52.75028123       1.81510769
      36.60000000      90.00000000     360.00000000      52.75032618       1.81510924
      36.70000000      90.00000000     360.00000000      52.75037113       1.81511079
      36.80000000      90.00000000     360.00000000      52.75041609       1.81511233
      36.90000000      90.00000000     360.00000000      52.75046105       1.81511388
      37.00000000      90.00000000     360.00000000      52.75050602       1.81511543
      37.10000000      90.00000000     360.00000000      52.75055099       1.81511698
      37.20000000      90.00000000     360.00000000      52.75059597       1.81511852
      37.30000000      90.00000000     360.00000000      52.75064096       1.81512007
      37.40000000      90.00000000     360.00000000      52.75068595       1.81512162
      37.50000000      90.00000000     360.00000000      52.75073094       1.81512317
      37.60000000      90.00000000     360.00000000      52.75077594       1.81512472
      37.70000000      90.00000000     360.00000000      52.75082095       1.81512626
      37.80000000      90.00000000     360.00000000      52.75086596       1.81512781
      37.90000000      90.00000000     360.00000000      52.75091098       1.81512936
      38.00000000      90.00000000     360.00000000      52.75095600       1.81513091
      38.10000000      90.00000000     360.00000000      52.75100103       1.81513246
      38.20000000      90.00000000     360.00000000      52.75104607       1.81513401
      38.30000000      90.00000000     360.00000000      52.75109111       1.81513556
      38.40000000      90.00000000     360.00000000      52.75113615       1.81513711
      38.50000000      90.00000000     360.00000000      52.75118120       1.81513866
      38.60000000      90.00000000     360.00000000      52.75122626       1.81514021
      38.70000000      90.00000000     360.00000000      52.75127132       1.81514176
      38.80000000      90.00000000     360.00000000      52.75131639       1.81514331
      38.90000000      90.00000000     360.00000000      52.75136146       1.81514486
      39.00000000      90.00000000     360.00000000      52.75140654       1.81514641
      39.10000000      90.00000000     360.00000000      52.75145163       1.81514797
      39.20000000      90.00000000     360.00000000      52.75149672       1.81514952
      39.30000000      90.00000000     360.00000000      52.75154181       1.81515107
      39.40000000      90.00000000     360.00000000      52.75158691       1.81515262
      39.50000000      90.00000000     360.00000000      52.75163202       1.81515417
      39.60000000      90.00000000     360.00000000      52.75167713       1.81515572
      39.70000000      90.00000000     360.00000000      52.75172225       1.81515728
      39.80000000      90.00000000     360.00000000      52.75176737       1.81515883
      39.90000000      90.00000000     360.00000000      52.75181250       1.81516038
      40.00000000      90.00000000     360.00000000      52.75185764       1.81516194
