 # applied field (T), theta (degree), phi (degree), abs [muB/unitcell], abs [T]
       0.00000000      90.00000000      45.42827637      54.84698292       1.90992354
       0.10000000      90.00000000      41.14509643      54.84706275       1.90992632
       0.20000000      90.00000000      37.71837688      54.84719786       1.90993103
       0.30000000      90.00000000      34.29144735      54.84738386       1.90993750
       0.40000000      90.00000000      30.86420358      54.84761400       1.90994552
       0.50000000      90.00000000      27.43656042      54.84787930       1.90995476
       0.60000000      90.00000000      24.00845695      54.84816872       1.90996483
       0.70000000      90.00000000      19.72268392      54.84852951       1.90997740
       0.80000000      90.00000000      16.29346482      54.84882460       1.90998767
       0.90000000      90.00000000      10.29136720      54.84923588       1.91000199
       1.00000000      90.00000000     360.00000000      54.84956363       1.91001341
       1.10000000      90.00000000     360.00000000      54.84962850       1.91001567
       1.20000000      90.00000000     360.00000000      54.84969338       1.91001793
       1.30000000      90.00000000     360.00000000      54.84975825       1.91002019
       1.40000000      90.00000000     360.00000000      54.84982314       1.91002244
       1.50000000      90.00000000     360.00000000      54.84988802       1.91002470
       1.60000000      90.00000000     360.00000000      54.84995290       1.91002696
       1.70000000      90.00000000     360.00000000      54.85001779       1.91002922
       1.80000000      90.00000000     360.00000000      54.85008268       1.91003148
       1.90000000      90.00000000     360.00000000      54.85014757       1.91003374
       2.00000000      90.00000000     360.00000000      54.85021247       1.91003600
       2.10000000      90.00000000     360.00000000      54.85027736       1.91003826
       2.20000000      90.00000000     360.00000000      54.85034226       1.91004052
       2.30000000      90.00000000     360.00000000      54.85040717       1.91004278
       2.40000000      90.00000000     360.00000000      54.85047207       1.91004504
       2.50000000      90.00000000     360.00000000      54.85053698       1.91004730
       2.60000000      90.00000000     360.00000000      54.85060188       1.91004956
       2.70000000      90.00000000     360.00000000      54.85066679       1.91005182
       2.80000000      90.00000000     360.00000000      54.85073171       1.91005408
       2.90000000      90.00000000     360.00000000      54.85079662       1.91005634
       3.00000000      90.00000000     360.00000000      54.85086154       1.91005861
       3.10000000      90.00000000     360.00000000      54.85092646       1.91006087
       3.20000000      90.00000000     360.00000000      54.85099139       1.91006313
       3.30000000      90.00000000     360.00000000      54.85105631       1.91006539
       3.40000000      90.00000000     360.00000000      54.85112124       1.91006765
       3.50000000      90.00000000     360.00000000      54.85118617       1.91006991
       3.60000000      90.00000000     360.00000000      54.85125110       1.91007217
       3.70000000      90.00000000     360.00000000      54.85131604       1.91007443
       3.80000000      90.00000000     360.00000000      54.85138097       1.91007669
       3.90000000      90.00000000     360.00000000      54.85144591       1.91007895
       4.00000000      90.00000000     360.00000000      54.85151085       1.91008122
       4.10000000      90.00000000     360.00000000      54.85157580       1.91008348
       4.20000000      90.00000000     360.00000000      54.85164075       1.91008574
       4.30000000      90.00000000     360.00000000      54.85170570       1.91008800
       4.40000000      90.00000000     360.00000000      54.85177065       1.91009026
       4.50000000      90.00000000     360.00000000      54.85183560       1.91009252
       4.60000000      90.00000000     360.00000000      54.85190056       1.91009479
       4.70000000      90.00000000     360.00000000      54.85196552       1.91009705
       4.80000000      90.00000000     360.00000000      54.85203048       1.91009931
       4.90000000      90.00000000     360.00000000      54.85209544       1.91010157
       5.00000000      90.00000000     360.00000000      54.85216041       1.91010384
       5.10000000      90.00000000     360.00000000      54.85222538       1.91010610
       5.20000000      90.00000000     360.00000000      54.85229035       1.91010836
       5.30000000      90.00000000     360.00000000      54.85235532       1.91011062
       5.40000000      90.00000000     360.00000000      54.85242030       1.91011289
       5.50000000      90.00000000     360.00000000      54.85248528       1.91011515
       5.60000000      90.00000000     360.00000000      54.85255026       1.91011741
       5.70000000      90.00000000     360.00000000      54.85261524       1.91011967
       5.80000000      90.00000000     360.00000000      54.85268023       1.91012194
       5.90000000      90.00000000     360.00000000      54.85274522       1.91012420
       6.00000000      90.00000000     360.00000000      54.85281021       1.91012646
       6.10000000      90.00000000     360.00000000      54.85287520       1.91012873
       6.20000000      90.00000000     360.00000000      54.85294020       1.91013099
       6.30000000      90.00000000     360.00000000      54.85300520       1.91013325
       6.40000000      90.00000000     360.00000000      54.85307020       1.91013552
       6.50000000      90.00000000     360.00000000      54.85313520       1.91013778
       6.60000000      90.00000000     360.00000000      54.85320021       1.91014004
       6.70000000      90.00000000     360.00000000      54.85326521       1.91014231
       6.80000000      90.00000000     360.00000000      54.85333023       1.91014457
       6.90000000      90.00000000     360.00000000      54.85339524       1.91014684
       7.00000000      90.00000000     360.00000000      54.85346026       1.91014910
       7.10000000      90.00000000     360.00000000      54.85352527       1.91015136
       7.20000000      90.00000000     360.00000000      54.85359029       1.91015363
       7.30000000      90.00000000     360.00000000      54.85365532       1.91015589
       7.40000000      90.00000000     360.00000000      54.85372034       1.91015816
       7.50000000      90.00000000     360.00000000      54.85378537       1.91016042
       7.60000000      90.00000000     360.00000000      54.85385040       1.91016269
       7.70000000      90.00000000     360.00000000      54.85391544       1.91016495
       7.80000000      90.00000000     360.00000000      54.85398047       1.91016721
       7.90000000      90.00000000     360.00000000      54.85404551       1.91016948
       8.00000000      90.00000000     360.00000000      54.85411056       1.91017174
       8.10000000      90.00000000     360.00000000      54.85417560       1.91017401
       8.20000000      90.00000000     360.00000000      54.85424065       1.91017627
       8.30000000      90.00000000     360.00000000      54.85430569       1.91017854
       8.40000000      90.00000000     360.00000000      54.85437075       1.91018081
       8.50000000      90.00000000     360.00000000      54.85443580       1.91018307
       8.60000000      90.00000000     360.00000000      54.85450086       1.91018534
       8.70000000      90.00000000     360.00000000      54.85456592       1.91018760
       8.80000000      90.00000000     360.00000000      54.85463098       1.91018987
       8.90000000      90.00000000     360.00000000      54.85469604       1.91019213
       9.00000000      90.00000000     360.00000000      54.85476111       1.91019440
       9.10000000      90.00000000     360.00000000      54.85482618       1.91019666
       9.20000000      90.00000000     360.00000000      54.85489125       1.91019893
       9.30000000      90.00000000     360.00000000      54.85495633       1.91020120
       9.40000000      90.00000000     360.00000000      54.85502141       1.91020346
       9.50000000      90.00000000     360.00000000      54.85508649       1.91020573
       9.60000000      90.00000000     360.00000000      54.85515157       1.91020800
       9.70000000      90.00000000     360.00000000      54.85521665       1.91021026
       9.80000000      90.00000000     360.00000000      54.85528174       1.91021253
       9.90000000      90.00000000     360.00000000      54.85534683       1.91021480
      10.00000000      90.00000000     360.00000000      54.85541193       1.91021706
      10.10000000      90.00000000     360.00000000      54.85547702       1.91021933
      10.20000000      90.00000000     360.00000000      54.85554212       1.91022160
      10.30000000      90.00000000     360.00000000      54.85560722       1.91022386
      10.40000000      90.00000000     360.00000000      54.85567232       1.91022613
      10.50000000      90.00000000     360.00000000      54.85573743       1.91022840
      10.60000000      90.00000000     360.00000000      54.85580254       1.91023066
      10.70000000      90.00000000     360.00000000      54.85586765       1.91023293
      10.80000000      90.00000000     360.00000000      54.85593277       1.91023520
      10.90000000      90.00000000     360.00000000      54.85599788       1.91023747
      11.00000000      90.00000000     360.00000000      54.85606300       1.91023973
      11.10000000      90.00000000     360.00000000      54.85612813       1.91024200
      11.20000000      90.00000000     360.00000000      54.85619325       1.91024427
      11.30000000      90.00000000     360.00000000      54.85625838       1.91024654
      11.40000000      90.00000000     360.00000000      54.85632351       1.91024881
      11.50000000      90.00000000     360.00000000      54.85638864       1.91025107
      11.60000000      90.00000000     360.00000000      54.85645378       1.91025334
      11.70000000      90.00000000     360.00000000      54.85651892       1.91025561
      11.80000000      90.00000000     360.00000000      54.85658406       1.91025788
      11.90000000      90.00000000     360.00000000      54.85664920       1.91026015
      12.00000000      90.00000000     360.00000000      54.85671435       1.91026242
      12.10000000      90.00000000     360.00000000      54.85677950       1.91026468
      12.20000000      90.00000000     360.00000000      54.85684465       1.91026695
      12.30000000      90.00000000     360.00000000      54.85690980       1.91026922
      12.40000000      90.00000000     360.00000000      54.85697496       1.91027149
      12.50000000      90.00000000     360.00000000      54.85704012       1.91027376
      12.60000000      90.00000000     360.00000000      54.85710528       1.91027603
      12.70000000      90.00000000     360.00000000      54.85717045       1.91027830
      12.80000000      90.00000000     360.00000000      54.85723562       1.91028057
      12.90000000      90.00000000     360.00000000      54.85730079       1.91028284
      13.00000000      90.00000000     360.00000000      54.85736596       1.91028511
      13.10000000      90.00000000     360.00000000      54.85743114       1.91028738
      13.20000000      90.00000000     360.00000000      54.85749632       1.91028965
      13.30000000      90.00000000     360.00000000      54.85756150       1.91029192
      13.40000000      90.00000000     360.00000000      54.85762668       1.91029419
      13.50000000      90.00000000     360.00000000      54.85769187       1.91029646
      13.60000000      90.00000000     360.00000000      54.85775706       1.91029873
      13.70000000      90.00000000     360.00000000      54.85782225       1.91030100
      13.80000000      90.00000000     360.00000000      54.85788745       1.91030327
      13.90000000      90.00000000     360.00000000      54.85795265       1.91030554
      14.00000000      90.00000000     360.00000000      54.85801785       1.91030781
      14.10000000      90.00000000     360.00000000      54.85808305       1.91031008
      14.20000000      90.00000000     360.00000000      54.85814826       1.91031235
      14.30000000      90.00000000     360.00000000      54.85821347       1.91031462
      14.40000000      90.00000000     360.00000000      54.85827868       1.91031689
      14.50000000      90.00000000     360.00000000      54.85834389       1.91031916
      14.60000000      90.00000000     360.00000000      54.85840911       1.91032143
      14.70000000      90.00000000     360.00000000      54.85847433       1.91032370
      14.80000000      90.00000000     360.00000000      54.85853956       1.91032597
      14.90000000      90.00000000     360.00000000      54.85860478       1.91032825
      15.00000000      90.00000000     360.00000000      54.85867001       1.91033052
      15.10000000      90.00000000     360.00000000      54.85873524       1.91033279
      15.20000000      90.00000000     360.00000000      54.85880048       1.91033506
      15.30000000      90.00000000     360.00000000      54.85886571       1.91033733
      15.40000000      90.00000000     360.00000000      54.85893096       1.91033960
      15.50000000      90.00000000     360.00000000      54.85899620       1.91034188
      15.60000000      90.00000000     360.00000000      54.85906144       1.91034415
      15.70000000      90.00000000     360.00000000      54.85912669       1.91034642
      15.80000000      90.00000000     360.00000000      54.85919194       1.91034869
      15.90000000      90.00000000     360.00000000      54.85925720       1.91035097
      16.00000000      90.00000000     360.00000000      54.85932246       1.91035324
      16.10000000      90.00000000     360.00000000      54.85938772       1.91035551
      16.20000000      90.00000000     360.00000000      54.85945298       1.91035778
      16.30000000      90.00000000     360.00000000      54.85951824       1.91036006
      16.40000000      90.00000000     360.00000000      54.85958351       1.91036233
      16.50000000      90.00000000     360.00000000      54.85964878       1.91036460
      16.60000000      90.00000000     360.00000000      54.85971406       1.91036687
      16.70000000      90.00000000     360.00000000      54.85977934       1.91036915
      16.80000000      90.00000000     360.00000000      54.85984462       1.91037142
      16.90000000      90.00000000     360.00000000      54.85990990       1.91037369
      17.00000000      90.00000000     360.00000000      54.85997518       1.91037597
      17.10000000      90.00000000     360.00000000      54.86004047       1.91037824
      17.20000000      90.00000000     360.00000000      54.86010576       1.91038051
      17.30000000      90.00000000     360.00000000      54.86017106       1.91038279
      17.40000000      90.00000000     360.00000000      54.86023636       1.91038506
      17.50000000      90.00000000     360.00000000      54.86030166       1.91038734
      17.60000000      90.00000000     360.00000000      54.86036696       1.91038961
      17.70000000      90.00000000     360.00000000      54.86043226       1.91039188
      17.80000000      90.00000000     360.00000000      54.86049757       1.91039416
      17.90000000      90.00000000     360.00000000      54.86056288       1.91039643
      18.00000000      90.00000000     360.00000000      54.86062820       1.91039871
      18.10000000      90.00000000     360.00000000      54.86069352       1.91040098
      18.20000000      90.00000000     360.00000000      54.86075884       1.91040326
      18.30000000      90.00000000     360.00000000      54.86082416       1.91040553
      18.40000000      90.00000000     360.00000000      54.86088949       1.91040781
      18.50000000      90.00000000     360.00000000      54.86095482       1.91041008
      18.60000000      90.00000000     360.00000000      54.86102015       1.91041236
      18.70000000      90.00000000     360.00000000      54.86108548       1.91041463
      18.80000000      90.00000000     360.00000000      54.86115082       1.91041691
      18.90000000      90.00000000     360.00000000      54.86121616       1.91041918
      19.00000000      90.00000000     360.00000000      54.86128151       1.91042146
      19.10000000      90.00000000     360.00000000      54.86134685       1.91042373
      19.20000000      90.00000000     360.00000000      54.86141220       1.91042601
      19.30000000      90.00000000     360.00000000      54.86147755       1.91042828
      19.40000000      90.00000000     360.00000000      54.86154291       1.91043056
      19.50000000      90.00000000     360.00000000      54.86160827       1.91043284
      19.60000000      90.00000000     360.00000000      54.86167363       1.91043511
      19.70000000      90.00000000     360.00000000      54.86173899       1.91043739
      19.80000000      90.00000000     360.00000000      54.86180436       1.91043966
      19.90000000      90.00000000     360.00000000      54.86186973       1.91044194
      20.00000000      90.00000000     360.00000000      54.86193511       1.91044422
      20.10000000      90.00000000     360.00000000      54.86200048       1.91044649
      20.20000000      90.00000000     360.00000000      54.86206586       1.91044877
      20.30000000      90.00000000     360.00000000      54.86213124       1.91045105
      20.40000000      90.00000000     360.00000000      54.86219663       1.91045332
      20.50000000      90.00000000     360.00000000      54.86226202       1.91045560
      20.60000000      90.00000000     360.00000000      54.86232741       1.91045788
      20.70000000      90.00000000     360.00000000      54.86239280       1.91046016
      20.80000000      90.00000000     360.00000000      54.86245820       1.91046243
      20.90000000      90.00000000     360.00000000      54.86252360       1.91046471
      21.00000000      90.00000000     360.00000000      54.86258900       1.91046699
      21.10000000      90.00000000     360.00000000      54.86265441       1.91046927
      21.20000000      90.00000000     360.00000000      54.86271982       1.91047154
      21.30000000      90.00000000     360.00000000      54.86278523       1.91047382
      21.40000000      90.00000000     360.00000000      54.86285065       1.91047610
      21.50000000      90.00000000     360.00000000      54.86291607       1.91047838
      21.60000000      90.00000000     360.00000000      54.86298149       1.91048066
      21.70000000      90.00000000     360.00000000      54.86304691       1.91048293
      21.80000000      90.00000000     360.00000000      54.86311234       1.91048521
      21.90000000      90.00000000     360.00000000      54.86317777       1.91048749
      22.00000000      90.00000000     360.00000000      54.86324320       1.91048977
      22.10000000      90.00000000     360.00000000      54.86330864       1.91049205
      22.20000000      90.00000000     360.00000000      54.86337408       1.91049433
      22.30000000      90.00000000     360.00000000      54.86343952       1.91049661
      22.40000000      90.00000000     360.00000000      54.86350497       1.91049888
      22.50000000      90.00000000     360.00000000      54.86357042       1.91050116
      22.60000000      90.00000000     360.00000000      54.86363587       1.91050344
      22.70000000      90.00000000     360.00000000      54.86370132       1.91050572
      22.80000000      90.00000000     360.00000000      54.86376678       1.91050800
      22.90000000      90.00000000     360.00000000      54.86383224       1.91051028
      23.00000000      90.00000000     360.00000000      54.86389771       1.91051256
      23.10000000      90.00000000     360.00000000      54.86396317       1.91051484
      23.20000000      90.00000000     360.00000000      54.86402864       1.91051712
      23.30000000      90.00000000     360.00000000      54.86409412       1.91051940
      23.40000000      90.00000000     360.00000000      54.86415959       1.91052168
      23.50000000      90.00000000     360.00000000      54.86422507       1.91052396
      23.60000000      90.00000000     360.00000000      54.86429056       1.91052624
      23.70000000      90.00000000     360.00000000      54.86435604       1.91052852
      23.80000000      90.00000000     360.00000000      54.86442153       1.91053080
      23.90000000      90.00000000     360.00000000      54.86448702       1.91053308
      24.00000000      90.00000000     360.00000000      54.86455252       1.91053536
      24.10000000      90.00000000     360.00000000      54.86461802       1.91053764
      24.20000000      90.00000000     360.00000000      54.86468352       1.91053992
      24.30000000      90.00000000     360.00000000      54.86474902       1.91054221
      24.40000000      90.00000000     360.00000000      54.86481453       1.91054449
      24.50000000      90.00000000     360.00000000      54.86488004       1.91054677
      24.60000000      90.00000000     360.00000000      54.86494555       1.91054905
      24.70000000      90.00000000     360.00000000      54.86501107       1.91055133
      24.80000000      90.00000000     360.00000000      54.86507659       1.91055361
      24.90000000      90.00000000     360.00000000      54.86514211       1.91055589
      25.00000000      90.00000000     360.00000000      54.86520764       1.91055818
      25.10000000      90.00000000     360.00000000      54.86527317       1.91056046
      25.20000000      90.00000000     360.00000000      54.86533870       1.91056274
      25.30000000      90.00000000     360.00000000      54.86540424       1.91056502
      25.40000000      90.00000000     360.00000000      54.86546978       1.91056730
      25.50000000      90.00000000     360.00000000      54.86553532       1.91056959
      25.60000000      90.00000000     360.00000000      54.86560086       1.91057187
      25.70000000      90.00000000     360.00000000      54.86566641       1.91057415
      25.80000000      90.00000000     360.00000000      54.86573197       1.91057643
      25.90000000      90.00000000     360.00000000      54.86579752       1.91057872
      26.00000000      90.00000000     360.00000000      54.86586308       1.91058100
      26.10000000      90.00000000     360.00000000      54.86592864       1.91058328
      26.20000000      90.00000000     360.00000000      54.86599420       1.91058557
      26.30000000      90.00000000     360.00000000      54.86605977       1.91058785
      26.40000000      90.00000000     360.00000000      54.86612534       1.91059013
      26.50000000      90.00000000     360.00000000      54.86619092       1.91059242
      26.60000000      90.00000000     360.00000000      54.86625649       1.91059470
      26.70000000      90.00000000     360.00000000      54.86632207       1.91059698
      26.80000000      90.00000000     360.00000000      54.86638766       1.91059927
      26.90000000      90.00000000     360.00000000      54.86645324       1.91060155
      27.00000000      90.00000000     360.00000000      54.86651883       1.91060384
      27.10000000      90.00000000     360.00000000      54.86658443       1.91060612
      27.20000000      90.00000000     360.00000000      54.86665002       1.91060840
      27.30000000      90.00000000     360.00000000      54.86671562       1.91061069
      27.40000000      90.00000000     360.00000000      54.86678123       1.91061297
      27.50000000      90.00000000     360.00000000      54.86684683       1.91061526
      27.60000000      90.00000000     360.00000000      54.86691244       1.91061754
      27.70000000      90.00000000     360.00000000      54.86697805       1.91061983
      27.80000000      90.00000000     360.00000000      54.86704367       1.91062211
      27.90000000      90.00000000     360.00000000      54.86710929       1.91062440
      28.00000000      90.00000000     360.00000000      54.86717491       1.91062668
      28.10000000      90.00000000     360.00000000      54.86724054       1.91062897
      28.20000000      90.00000000     360.00000000      54.86730616       1.91063125
      28.30000000      90.00000000     360.00000000      54.86737180       1.91063354
      28.40000000      90.00000000     360.00000000      54.86743743       1.91063582
      28.50000000      90.00000000     360.00000000      54.86750307       1.91063811
      28.60000000      90.00000000     360.00000000      54.86756871       1.91064039
      28.70000000      90.00000000     360.00000000      54.86763436       1.91064268
      28.80000000      90.00000000     360.00000000      54.86770001       1.91064497
      28.90000000      90.00000000     360.00000000      54.86776566       1.91064725
      29.00000000      90.00000000     360.00000000      54.86783131       1.91064954
      29.10000000      90.00000000     360.00000000      54.86789697       1.91065183
      29.20000000      90.00000000     360.00000000      54.86796263       1.91065411
      29.30000000      90.00000000     360.00000000      54.86802830       1.91065640
      29.40000000      90.00000000     360.00000000      54.86809396       1.91065869
      29.50000000      90.00000000     360.00000000      54.86815964       1.91066097
      29.60000000      90.00000000     360.00000000      54.86822531       1.91066326
      29.70000000      90.00000000     360.00000000      54.86829099       1.91066555
      29.80000000      90.00000000     360.00000000      54.86835667       1.91066783
      29.90000000      90.00000000     360.00000000      54.86842235       1.91067012
      30.00000000      90.00000000     360.00000000      54.86848804       1.91067241
      30.10000000      90.00000000     360.00000000      54.86855373       1.91067470
      30.20000000      90.00000000     360.00000000      54.86861943       1.91067698
      30.30000000      90.00000000     360.00000000      54.86868512       1.91067927
      30.40000000      90.00000000     360.00000000      54.86875083       1.91068156
      30.50000000      90.00000000     360.00000000      54.86881653       1.91068385
      30.60000000      90.00000000     360.00000000      54.86888224       1.91068614
      30.70000000      90.00000000     360.00000000      54.86894795       1.91068842
      30.80000000      90.00000000     360.00000000      54.86901366       1.91069071
      30.90000000      90.00000000     360.00000000      54.86907938       1.91069300
      31.00000000      90.00000000     360.00000000      54.86914510       1.91069529
      31.10000000      90.00000000     360.00000000      54.86921083       1.91069758
      31.20000000      90.00000000     360.00000000      54.86927655       1.91069987
      31.30000000      90.00000000     360.00000000      54.86934229       1.91070216
      31.40000000      90.00000000     360.00000000      54.86940802       1.91070444
      31.50000000      90.00000000     360.00000000      54.86947376       1.91070673
      31.60000000      90.00000000     360.00000000      54.86953950       1.91070902
      31.70000000      90.00000000     360.00000000      54.86960524       1.91071131
      31.80000000      90.00000000     360.00000000      54.86967099       1.91071360
      31.90000000      90.00000000     360.00000000      54.86973674       1.91071589
      32.00000000      90.00000000     360.00000000      54.86980250       1.91071818
      32.10000000      90.00000000     360.00000000      54.86986826       1.91072047
      32.20000000      90.00000000     360.00000000      54.86993402       1.91072276
      32.30000000      90.00000000     360.00000000      54.86999978       1.91072505
      32.40000000      90.00000000     360.00000000      54.87006555       1.91072734
      32.50000000      90.00000000     360.00000000      54.87013132       1.91072963
      32.60000000      90.00000000     360.00000000      54.87019710       1.91073192
      32.70000000      90.00000000     360.00000000      54.87026288       1.91073421
      32.80000000      90.00000000     360.00000000      54.87032866       1.91073650
      32.90000000      90.00000000     360.00000000      54.87039444       1.91073879
      33.00000000      90.00000000     360.00000000      54.87046023       1.91074109
      33.10000000      90.00000000     360.00000000      54.87052602       1.91074338
      33.20000000      90.00000000     360.00000000      54.87059182       1.91074567
      33.30000000      90.00000000     360.00000000      54.87065762       1.91074796
      33.40000000      90.00000000     360.00000000      54.87072342       1.91075025
      33.50000000      90.00000000     360.00000000      54.87078923       1.91075254
      33.60000000      90.00000000     360.00000000      54.87085504       1.91075483
      33.70000000      90.00000000     360.00000000      54.87092085       1.91075713
      33.80000000      90.00000000     360.00000000      54.87098667       1.91075942
      33.90000000      90.00000000     360.00000000      54.87105249       1.91076171
      34.00000000      90.00000000     360.00000000      54.87111831       1.91076400
      34.10000000      90.00000000     360.00000000      54.87118413       1.91076629
      34.20000000      90.00000000     360.00000000      54.87124996       1.91076859
      34.30000000      90.00000000     360.00000000      54.87131580       1.91077088
      34.40000000      90.00000000     360.00000000      54.87138163       1.91077317
      34.50000000      90.00000000     360.00000000      54.87144747       1.91077546
      34.60000000      90.00000000     360.00000000      54.87151332       1.91077776
      34.70000000      90.00000000     360.00000000      54.87157917       1.91078005
      34.80000000      90.00000000     360.00000000      54.87164502       1.91078234
      34.90000000      90.00000000     360.00000000      54.87171087       1.91078464
      35.00000000      90.00000000     360.00000000      54.87177673       1.91078693
      35.10000000      90.00000000     360.00000000      54.87184259       1.91078922
      35.20000000      90.00000000     360.00000000      54.87190845       1.91079152
      35.30000000      90.00000000     360.00000000      54.87197432       1.91079381
      35.40000000      90.00000000     360.00000000      54.87204019       1.91079610
      35.50000000      90.00000000     360.00000000      54.87210607       1.91079840
      35.60000000      90.00000000     360.00000000      54.87217195       1.91080069
      35.70000000      90.00000000     360.00000000      54.87223783       1.91080299
      35.80000000      90.00000000     360.00000000      54.87230372       1.91080528
      35.90000000      90.00000000     360.00000000      54.87236960       1.91080758
      36.00000000      90.00000000     360.00000000      54.87243550       1.91080987
      36.10000000      90.00000000     360.00000000      54.87250139       1.91081216
      36.20000000      90.00000000     360.00000000      54.87256729       1.91081446
      36.30000000      90.00000000     360.00000000      54.87263320       1.91081675
      36.40000000      90.00000000     360.00000000      54.87269910       1.91081905
      36.50000000      90.00000000     360.00000000      54.87276501       1.91082134
      36.60000000      90.00000000     360.00000000      54.87283093       1.91082364
      36.70000000      90.00000000     360.00000000      54.87289684       1.91082594
      36.80000000      90.00000000     360.00000000      54.87296276       1.91082823
      36.90000000      90.00000000     360.00000000      54.87302869       1.91083053
      37.00000000      90.00000000     360.00000000      54.87309462       1.91083282
      37.10000000      90.00000000     360.00000000      54.87316055       1.91083512
      37.20000000      90.00000000     360.00000000      54.87322648       1.91083741
      37.30000000      90.00000000     360.00000000      54.87329242       1.91083971
      37.40000000      90.00000000     360.00000000      54.87335836       1.91084201
      37.50000000      90.00000000     360.00000000      54.87342431       1.91084430
      37.60000000      90.00000000     360.00000000      54.87349026       1.91084660
      37.70000000      90.00000000     360.00000000      54.87355621       1.91084890
      37.80000000      90.00000000     360.00000000      54.87362217       1.91085119
      37.90000000      90.00000000     360.00000000      54.87368813       1.91085349
      38.00000000      90.00000000     360.00000000      54.87375409       1.91085579
      38.10000000      90.00000000     360.00000000      54.87382006       1.91085808
      38.20000000      90.00000000     360.00000000      54.87388603       1.91086038
      38.30000000      90.00000000     360.00000000      54.87395200       1.91086268
      38.40000000      90.00000000     360.00000000      54.87401798       1.91086498
      38.50000000      90.00000000     360.00000000      54.87408396       1.91086727
      38.60000000      90.00000000     360.00000000      54.87414995       1.91086957
      38.70000000      90.00000000     360.00000000      54.87421594       1.91087187
      38.80000000      90.00000000     360.00000000      54.87428193       1.91087417
      38.90000000      90.00000000     360.00000000      54.87434792       1.91087647
      39.00000000      90.00000000     360.00000000      54.87441392       1.91087876
      39.10000000      90.00000000     360.00000000      54.87447993       1.91088106
      39.20000000      90.00000000     360.00000000      54.87454593       1.91088336
      39.30000000      90.00000000     360.00000000      54.87461194       1.91088566
      39.40000000      90.00000000     360.00000000      54.87467796       1.91088796
      39.50000000      90.00000000     360.00000000      54.87474397       1.91089026
      39.60000000      90.00000000     360.00000000      54.87481000       1.91089256
      39.70000000      90.00000000     360.00000000      54.87487602       1.91089486
      39.80000000      90.00000000     360.00000000      54.87494205       1.91089715
      39.90000000      90.00000000     360.00000000      54.87500808       1.91089945
      40.00000000      90.00000000     360.00000000      54.87507412       1.91090175
