 # applied field (T), theta (degree), phi (degree), abs [muB/unitcell], abs [T]
       0.00000000       0.00000000       0.00000000      43.98127755       1.47028535
       0.10000000       0.45666032      45.00000000      43.98128196       1.47028550
       0.20000000       0.97031347      45.00000000      43.98129724       1.47028601
       0.30000000       1.42698330      45.00000000      43.98132028       1.47028678
       0.40000000       1.88366207      45.00000000      43.98135213       1.47028784
       0.50000000       2.39734669      45.00000000      43.98139789       1.47028937
       0.60000000       2.85405395      45.00000000      43.98144828       1.47029106
       0.70000000       3.36777788      45.00000000      43.98151460       1.47029327
       0.80000000       3.82452648      45.00000000      43.98158340       1.47029557
       0.90000000      90.00000000      45.00000000      43.93885914       1.46886731
       1.00000000      90.00000000      45.00000000      43.93892037       1.46886936
       1.10000000      90.00000000      45.00000000      43.93898159       1.46887140
       1.20000000      90.00000000      45.00000000      43.93904280       1.46887345
       1.30000000      90.00000000      45.00000000      43.93910401       1.46887550
       1.40000000      90.00000000      45.00000000      43.93916522       1.46887754
       1.50000000      90.00000000      45.00000000      43.93922642       1.46887959
       1.60000000      90.00000000      45.00000000      43.93928763       1.46888164
       1.70000000      90.00000000      45.00000000      43.93934882       1.46888368
       1.80000000      90.00000000      45.00000000      43.93941001       1.46888573
       1.90000000      90.00000000      45.00000000      43.93947120       1.46888777
       2.00000000      90.00000000      45.00000000      43.93953239       1.46888982
       2.10000000      90.00000000      45.00000000      43.93959357       1.46889186
       2.20000000      90.00000000      45.00000000      43.93965475       1.46889391
       2.30000000      90.00000000      45.00000000      43.93971592       1.46889595
       2.40000000      90.00000000      45.00000000      43.93977709       1.46889800
       2.50000000      90.00000000      45.00000000      43.93983825       1.46890004
       2.60000000      90.00000000      45.00000000      43.93989942       1.46890209
       2.70000000      90.00000000      45.00000000      43.93996058       1.46890413
       2.80000000      90.00000000      45.00000000      43.94002173       1.46890618
       2.90000000      90.00000000      45.00000000      43.94008288       1.46890822
       3.00000000      90.00000000      45.00000000      43.94014403       1.46891026
       3.10000000      90.00000000      45.00000000      43.94020517       1.46891231
       3.20000000      90.00000000      45.00000000      43.94026631       1.46891435
       3.30000000      90.00000000      45.00000000      43.94032745       1.46891640
       3.40000000      90.00000000      45.00000000      43.94038858       1.46891844
       3.50000000      90.00000000      45.00000000      43.94044971       1.46892048
       3.60000000      90.00000000      45.00000000      43.94051083       1.46892253
       3.70000000      90.00000000      45.00000000      43.94057195       1.46892457
       3.80000000      90.00000000      45.00000000      43.94063307       1.46892661
       3.90000000      90.00000000      45.00000000      43.94069419       1.46892866
       4.00000000      90.00000000      45.00000000      43.94075530       1.46893070
       4.10000000      90.00000000      45.00000000      43.94081640       1.46893274
       4.20000000      90.00000000      45.00000000      43.94087751       1.46893478
       4.30000000      90.00000000      45.00000000      43.94093860       1.46893683
       4.40000000      90.00000000      45.00000000      43.94099970       1.46893887
       4.50000000      90.00000000      45.00000000      43.94106079       1.46894091
       4.60000000      90.00000000      45.00000000      43.94112188       1.46894295
       4.70000000      90.00000000      45.00000000      43.94118296       1.46894500
       4.80000000      90.00000000      45.00000000      43.94124405       1.46894704
       4.90000000      90.00000000      45.00000000      43.94130512       1.46894908
       5.00000000      90.00000000      45.00000000      43.94136620       1.46895112
       5.10000000      90.00000000      45.00000000      43.94142727       1.46895316
       5.20000000      90.00000000      45.00000000      43.94148833       1.46895520
       5.30000000      90.00000000      45.00000000      43.94154939       1.46895725
       5.40000000      90.00000000      45.00000000      43.94161045       1.46895929
       5.50000000      90.00000000      45.00000000      43.94167151       1.46896133
       5.60000000      90.00000000      45.00000000      43.94173256       1.46896337
       5.70000000      90.00000000      45.00000000      43.94179361       1.46896541
       5.80000000      90.00000000      45.00000000      43.94185465       1.46896745
       5.90000000      90.00000000      45.00000000      43.94191570       1.46896949
       6.00000000      90.00000000      45.00000000      43.94197673       1.46897153
       6.10000000      90.00000000      45.00000000      43.94203777       1.46897357
       6.20000000      90.00000000      45.00000000      43.94209880       1.46897561
       6.30000000      90.00000000      45.00000000      43.94215982       1.46897765
       6.40000000      90.00000000      45.00000000      43.94222085       1.46897969
       6.50000000      90.00000000      45.00000000      43.94228187       1.46898173
       6.60000000      90.00000000      45.00000000      43.94234288       1.46898377
       6.70000000      90.00000000      45.00000000      43.94240390       1.46898581
       6.80000000      90.00000000      45.00000000      43.94246491       1.46898785
       6.90000000      90.00000000      45.00000000      43.94252591       1.46898989
       7.00000000      90.00000000      45.00000000      43.94258691       1.46899193
       7.10000000      90.00000000      45.00000000      43.94264791       1.46899397
       7.20000000      90.00000000      45.00000000      43.94270891       1.46899601
       7.30000000      90.00000000      45.00000000      43.94276990       1.46899805
       7.40000000      90.00000000      45.00000000      43.94283089       1.46900009
       7.50000000      90.00000000      45.00000000      43.94289187       1.46900212
       7.60000000      90.00000000      45.00000000      43.94295285       1.46900416
       7.70000000      90.00000000      45.00000000      43.94301383       1.46900620
       7.80000000      90.00000000      45.00000000      43.94307480       1.46900824
       7.90000000      90.00000000      45.00000000      43.94313577       1.46901028
       8.00000000      90.00000000      45.00000000      43.94319674       1.46901232
       8.10000000      90.00000000      45.00000000      43.94325771       1.46901435
       8.20000000      90.00000000      45.00000000      43.94331867       1.46901639
       8.30000000      90.00000000      45.00000000      43.94337962       1.46901843
       8.40000000      90.00000000      45.00000000      43.94344058       1.46902047
       8.50000000      90.00000000      45.00000000      43.94350153       1.46902251
       8.60000000      90.00000000      45.00000000      43.94356247       1.46902454
       8.70000000      90.00000000      45.00000000      43.94362342       1.46902658
       8.80000000      90.00000000      45.00000000      43.94368435       1.46902862
       8.90000000      90.00000000      45.00000000      43.94374529       1.46903065
       9.00000000      90.00000000      45.00000000      43.94380622       1.46903269
       9.10000000      90.00000000      45.00000000      43.94386715       1.46903473
       9.20000000      90.00000000      45.00000000      43.94392808       1.46903676
       9.30000000      90.00000000      45.00000000      43.94398900       1.46903880
       9.40000000      90.00000000      45.00000000      43.94404992       1.46904084
       9.50000000      90.00000000      45.00000000      43.94411084       1.46904287
       9.60000000      90.00000000      45.00000000      43.94417175       1.46904491
       9.70000000      90.00000000      45.00000000      43.94423266       1.46904695
       9.80000000      90.00000000      45.00000000      43.94429356       1.46904898
       9.90000000      90.00000000      45.00000000      43.94435447       1.46905102
      10.00000000      90.00000000      45.00000000      43.94441536       1.46905305
      10.10000000      90.00000000      45.00000000      43.94447626       1.46905509
      10.20000000      90.00000000      45.00000000      43.94453715       1.46905713
      10.30000000      90.00000000      45.00000000      43.94459804       1.46905916
      10.40000000      90.00000000      45.00000000      43.94465893       1.46906120
      10.50000000      90.00000000      45.00000000      43.94471981       1.46906323
      10.60000000      90.00000000      45.00000000      43.94478069       1.46906527
      10.70000000      90.00000000      45.00000000      43.94484156       1.46906730
      10.80000000      90.00000000      45.00000000      43.94490244       1.46906934
      10.90000000      90.00000000      45.00000000      43.94496330       1.46907137
      11.00000000      90.00000000      45.00000000      43.94502417       1.46907341
      11.10000000      90.00000000      45.00000000      43.94508503       1.46907544
      11.20000000      90.00000000      45.00000000      43.94514589       1.46907748
      11.30000000      90.00000000      45.00000000      43.94520675       1.46907951
      11.40000000      90.00000000      45.00000000      43.94526760       1.46908154
      11.50000000      90.00000000      45.00000000      43.94532845       1.46908358
      11.60000000      90.00000000      45.00000000      43.94538929       1.46908561
      11.70000000      90.00000000      45.00000000      43.94545014       1.46908765
      11.80000000      90.00000000      45.00000000      43.94551098       1.46908968
      11.90000000      90.00000000      45.00000000      43.94557181       1.46909171
      12.00000000      90.00000000      45.00000000      43.94563264       1.46909375
      12.10000000      90.00000000      45.00000000      43.94569347       1.46909578
      12.20000000      90.00000000      45.00000000      43.94575430       1.46909781
      12.30000000      90.00000000      45.00000000      43.94581512       1.46909985
      12.40000000      90.00000000      45.00000000      43.94587594       1.46910188
      12.50000000      90.00000000      45.00000000      43.94593676       1.46910391
      12.60000000      90.00000000      45.00000000      43.94599757       1.46910595
      12.70000000      90.00000000      45.00000000      43.94605838       1.46910798
      12.80000000      90.00000000      45.00000000      43.94611919       1.46911001
      12.90000000      90.00000000      45.00000000      43.94617999       1.46911205
      13.00000000      90.00000000      45.00000000      43.94624079       1.46911408
      13.10000000      90.00000000      45.00000000      43.94630159       1.46911611
      13.20000000      90.00000000      45.00000000      43.94636238       1.46911814
      13.30000000      90.00000000      45.00000000      43.94642318       1.46912018
      13.40000000      90.00000000      45.00000000      43.94648396       1.46912221
      13.50000000      90.00000000      45.00000000      43.94654475       1.46912424
      13.60000000      90.00000000      45.00000000      43.94660553       1.46912627
      13.70000000      90.00000000      45.00000000      43.94666631       1.46912830
      13.80000000      90.00000000      45.00000000      43.94672708       1.46913033
      13.90000000      90.00000000      45.00000000      43.94678785       1.46913237
      14.00000000      90.00000000      45.00000000      43.94684862       1.46913440
      14.10000000      90.00000000      45.00000000      43.94690939       1.46913643
      14.20000000      90.00000000      45.00000000      43.94697015       1.46913846
      14.30000000      90.00000000      45.00000000      43.94703091       1.46914049
      14.40000000      90.00000000      45.00000000      43.94709167       1.46914252
      14.50000000      90.00000000      45.00000000      43.94715242       1.46914455
      14.60000000      90.00000000      45.00000000      43.94721317       1.46914658
      14.70000000      90.00000000      45.00000000      43.94727391       1.46914862
      14.80000000      90.00000000      45.00000000      43.94733466       1.46915065
      14.90000000      90.00000000      45.00000000      43.94739540       1.46915268
      15.00000000      90.00000000      45.00000000      43.94745614       1.46915471
      15.10000000      90.00000000      45.00000000      43.94751687       1.46915674
      15.20000000      90.00000000      45.00000000      43.94757760       1.46915877
      15.30000000      90.00000000      45.00000000      43.94763833       1.46916080
      15.40000000      90.00000000      45.00000000      43.94769905       1.46916283
      15.50000000      90.00000000      45.00000000      43.94775978       1.46916486
      15.60000000      90.00000000      45.00000000      43.94782050       1.46916689
      15.70000000      90.00000000      45.00000000      43.94788121       1.46916892
      15.80000000      90.00000000      45.00000000      43.94794192       1.46917095
      15.90000000      90.00000000      45.00000000      43.94800263       1.46917298
      16.00000000      90.00000000      45.00000000      43.94806334       1.46917501
      16.10000000      90.00000000      45.00000000      43.94812404       1.46917704
      16.20000000      90.00000000      45.00000000      43.94818474       1.46917906
      16.30000000      90.00000000      45.00000000      43.94824544       1.46918109
      16.40000000      90.00000000      45.00000000      43.94830614       1.46918312
      16.50000000      90.00000000      45.00000000      43.94836683       1.46918515
      16.60000000      90.00000000      45.00000000      43.94842752       1.46918718
      16.70000000      90.00000000      45.00000000      43.94848820       1.46918921
      16.80000000      90.00000000      45.00000000      43.94854888       1.46919124
      16.90000000      90.00000000      45.00000000      43.94860956       1.46919327
      17.00000000      90.00000000      45.00000000      43.94867024       1.46919529
      17.10000000      90.00000000      45.00000000      43.94873091       1.46919732
      17.20000000      90.00000000      45.00000000      43.94879158       1.46919935
      17.30000000      90.00000000      45.00000000      43.94885225       1.46920138
      17.40000000      90.00000000      45.00000000      43.94891292       1.46920341
      17.50000000      90.00000000      45.00000000      43.94897358       1.46920543
      17.60000000      90.00000000      45.00000000      43.94903424       1.46920746
      17.70000000      90.00000000      45.00000000      43.94909489       1.46920949
      17.80000000      90.00000000      45.00000000      43.94915554       1.46921152
      17.90000000      90.00000000      45.00000000      43.94921619       1.46921355
      18.00000000      90.00000000      45.00000000      43.94927684       1.46921557
      18.10000000      90.00000000      45.00000000      43.94933748       1.46921760
      18.20000000      90.00000000      45.00000000      43.94939812       1.46921963
      18.30000000      90.00000000      45.00000000      43.94945876       1.46922165
      18.40000000      90.00000000      45.00000000      43.94951940       1.46922368
      18.50000000      90.00000000      45.00000000      43.94958003       1.46922571
      18.60000000      90.00000000      45.00000000      43.94964066       1.46922774
      18.70000000      90.00000000      45.00000000      43.94970128       1.46922976
      18.80000000      90.00000000      45.00000000      43.94976191       1.46923179
      18.90000000      90.00000000      45.00000000      43.94982253       1.46923382
      19.00000000      90.00000000      45.00000000      43.94988315       1.46923584
      19.10000000      90.00000000      45.00000000      43.94994376       1.46923787
      19.20000000      90.00000000      45.00000000      43.95000437       1.46923989
      19.30000000      90.00000000      45.00000000      43.95006498       1.46924192
      19.40000000      90.00000000      45.00000000      43.95012559       1.46924395
      19.50000000      90.00000000      45.00000000      43.95018619       1.46924597
      19.60000000      90.00000000      45.00000000      43.95024679       1.46924800
      19.70000000      90.00000000      45.00000000      43.95030739       1.46925002
      19.80000000      90.00000000      45.00000000      43.95036798       1.46925205
      19.90000000      90.00000000      45.00000000      43.95042857       1.46925407
      20.00000000      90.00000000      45.00000000      43.95048916       1.46925610
      20.10000000      90.00000000      45.00000000      43.95054975       1.46925813
      20.20000000      90.00000000      45.00000000      43.95061033       1.46926015
      20.30000000      90.00000000      45.00000000      43.95067091       1.46926218
      20.40000000      90.00000000      45.00000000      43.95073149       1.46926420
      20.50000000      90.00000000      45.00000000      43.95079206       1.46926623
      20.60000000      90.00000000      45.00000000      43.95085263       1.46926825
      20.70000000      90.00000000      45.00000000      43.95091320       1.46927028
      20.80000000      90.00000000      45.00000000      43.95097377       1.46927230
      20.90000000      90.00000000      45.00000000      43.95103433       1.46927433
      21.00000000      90.00000000      45.00000000      43.95109489       1.46927635
      21.10000000      90.00000000      45.00000000      43.95115545       1.46927837
      21.20000000      90.00000000      45.00000000      43.95121601       1.46928040
      21.30000000      90.00000000      45.00000000      43.95127656       1.46928242
      21.40000000      90.00000000      45.00000000      43.95133711       1.46928445
      21.50000000      90.00000000      45.00000000      43.95139765       1.46928647
      21.60000000      90.00000000      45.00000000      43.95145820       1.46928850
      21.70000000      90.00000000      45.00000000      43.95151874       1.46929052
      21.80000000      90.00000000      45.00000000      43.95157928       1.46929254
      21.90000000      90.00000000      45.00000000      43.95163981       1.46929457
      22.00000000      90.00000000      45.00000000      43.95170035       1.46929659
      22.10000000      90.00000000      45.00000000      43.95176088       1.46929861
      22.20000000      90.00000000      45.00000000      43.95182140       1.46930064
      22.30000000      90.00000000      45.00000000      43.95188193       1.46930266
      22.40000000      90.00000000      45.00000000      43.95194245       1.46930468
      22.50000000      90.00000000      45.00000000      43.95200297       1.46930671
      22.60000000      90.00000000      45.00000000      43.95206348       1.46930873
      22.70000000      90.00000000      45.00000000      43.95212400       1.46931075
      22.80000000      90.00000000      45.00000000      43.95218451       1.46931278
      22.90000000      90.00000000      45.00000000      43.95224502       1.46931480
      23.00000000      90.00000000      45.00000000      43.95230552       1.46931682
      23.10000000      90.00000000      45.00000000      43.95236603       1.46931884
      23.20000000      90.00000000      45.00000000      43.95242653       1.46932087
      23.30000000      90.00000000      45.00000000      43.95248702       1.46932289
      23.40000000      90.00000000      45.00000000      43.95254752       1.46932491
      23.50000000      90.00000000      45.00000000      43.95260801       1.46932693
      23.60000000      90.00000000      45.00000000      43.95266850       1.46932896
      23.70000000      90.00000000      45.00000000      43.95272899       1.46933098
      23.80000000      90.00000000      45.00000000      43.95278947       1.46933300
      23.90000000      90.00000000      45.00000000      43.95284995       1.46933502
      24.00000000      90.00000000      45.00000000      43.95291043       1.46933704
      24.10000000      90.00000000      45.00000000      43.95297091       1.46933906
      24.20000000      90.00000000      45.00000000      43.95303138       1.46934109
      24.30000000      90.00000000      45.00000000      43.95309185       1.46934311
      24.40000000      90.00000000      45.00000000      43.95315232       1.46934513
      24.50000000      90.00000000      45.00000000      43.95321279       1.46934715
      24.60000000      90.00000000      45.00000000      43.95327325       1.46934917
      24.70000000      90.00000000      45.00000000      43.95333371       1.46935119
      24.80000000      90.00000000      45.00000000      43.95339417       1.46935321
      24.90000000      90.00000000      45.00000000      43.95345462       1.46935524
      25.00000000      90.00000000      45.00000000      43.95351507       1.46935726
      25.10000000      90.00000000      45.00000000      43.95357552       1.46935928
      25.20000000      90.00000000      45.00000000      43.95363597       1.46936130
      25.30000000      90.00000000      45.00000000      43.95369642       1.46936332
      25.40000000      90.00000000      45.00000000      43.95375686       1.46936534
      25.50000000      90.00000000      45.00000000      43.95381730       1.46936736
      25.60000000      90.00000000      45.00000000      43.95387774       1.46936938
      25.70000000      90.00000000      45.00000000      43.95393817       1.46937140
      25.80000000      90.00000000      45.00000000      43.95399860       1.46937342
      25.90000000      90.00000000      45.00000000      43.95405903       1.46937544
      26.00000000      90.00000000      45.00000000      43.95411946       1.46937746
      26.10000000      90.00000000      45.00000000      43.95417988       1.46937948
      26.20000000      90.00000000      45.00000000      43.95424030       1.46938150
      26.30000000      90.00000000      45.00000000      43.95430072       1.46938352
      26.40000000      90.00000000      45.00000000      43.95436114       1.46938554
      26.50000000      90.00000000      45.00000000      43.95442155       1.46938756
      26.60000000      90.00000000      45.00000000      43.95448197       1.46938958
      26.70000000      90.00000000      45.00000000      43.95454238       1.46939160
      26.80000000      90.00000000      45.00000000      43.95460278       1.46939362
      26.90000000      90.00000000      45.00000000      43.95466319       1.46939564
      27.00000000      90.00000000      45.00000000      43.95472359       1.46939766
      27.10000000      90.00000000      45.00000000      43.95478399       1.46939968
      27.20000000      90.00000000      45.00000000      43.95484438       1.46940169
      27.30000000      90.00000000      45.00000000      43.95490478       1.46940371
      27.40000000      90.00000000      45.00000000      43.95496517       1.46940573
      27.50000000      90.00000000      45.00000000      43.95502556       1.46940775
      27.60000000      90.00000000      45.00000000      43.95508594       1.46940977
      27.70000000      90.00000000      45.00000000      43.95514633       1.46941179
      27.80000000      90.00000000      45.00000000      43.95520671       1.46941381
      27.90000000      90.00000000      45.00000000      43.95526709       1.46941583
      28.00000000      90.00000000      45.00000000      43.95532747       1.46941784
      28.10000000      90.00000000      45.00000000      43.95538784       1.46941986
      28.20000000      90.00000000      45.00000000      43.95544821       1.46942188
      28.30000000      90.00000000      45.00000000      43.95550858       1.46942390
      28.40000000      90.00000000      45.00000000      43.95556895       1.46942592
      28.50000000      90.00000000      45.00000000      43.95562931       1.46942793
      28.60000000      90.00000000      45.00000000      43.95568968       1.46942995
      28.70000000      90.00000000      45.00000000      43.95575004       1.46943197
      28.80000000      90.00000000      45.00000000      43.95581039       1.46943399
      28.90000000      90.00000000      45.00000000      43.95587075       1.46943601
      29.00000000      90.00000000      45.00000000      43.95593110       1.46943802
      29.10000000      90.00000000      45.00000000      43.95599145       1.46944004
      29.20000000      90.00000000      45.00000000      43.95605180       1.46944206
      29.30000000      90.00000000      45.00000000      43.95611214       1.46944408
      29.40000000      90.00000000      45.00000000      43.95617249       1.46944609
      29.50000000      90.00000000      45.00000000      43.95623283       1.46944811
      29.60000000      90.00000000      45.00000000      43.95629317       1.46945013
      29.70000000      90.00000000      45.00000000      43.95635350       1.46945214
      29.80000000      90.00000000      45.00000000      43.95641383       1.46945416
      29.90000000      90.00000000      45.00000000      43.95647417       1.46945618
      30.00000000      90.00000000      45.00000000      43.95653449       1.46945819
      30.10000000      90.00000000      45.00000000      43.95659482       1.46946021
      30.20000000      90.00000000      45.00000000      43.95665514       1.46946223
      30.30000000      90.00000000      45.00000000      43.95671547       1.46946424
      30.40000000      90.00000000      45.00000000      43.95677579       1.46946626
      30.50000000      90.00000000      45.00000000      43.95683610       1.46946828
      30.60000000      90.00000000      45.00000000      43.95689642       1.46947029
      30.70000000      90.00000000      45.00000000      43.95695673       1.46947231
      30.80000000      90.00000000      45.00000000      43.95701704       1.46947433
      30.90000000      90.00000000      45.00000000      43.95707735       1.46947634
      31.00000000      90.00000000      45.00000000      43.95713765       1.46947836
      31.10000000      90.00000000      45.00000000      43.95719796       1.46948037
      31.20000000      90.00000000      45.00000000      43.95725826       1.46948239
      31.30000000      90.00000000      45.00000000      43.95731855       1.46948441
      31.40000000      90.00000000      45.00000000      43.95737885       1.46948642
      31.50000000      90.00000000      45.00000000      43.95743914       1.46948844
      31.60000000      90.00000000      45.00000000      43.95749944       1.46949045
      31.70000000      90.00000000      45.00000000      43.95755973       1.46949247
      31.80000000      90.00000000      45.00000000      43.95762001       1.46949448
      31.90000000      90.00000000      45.00000000      43.95768030       1.46949650
      32.00000000      90.00000000      45.00000000      43.95774058       1.46949851
      32.10000000      90.00000000      45.00000000      43.95780086       1.46950053
      32.20000000      90.00000000      45.00000000      43.95786114       1.46950254
      32.30000000      90.00000000      45.00000000      43.95792141       1.46950456
      32.40000000      90.00000000      45.00000000      43.95798169       1.46950657
      32.50000000      90.00000000      45.00000000      43.95804196       1.46950859
      32.60000000      90.00000000      45.00000000      43.95810223       1.46951060
      32.70000000      90.00000000      45.00000000      43.95816249       1.46951262
      32.80000000      90.00000000      45.00000000      43.95822276       1.46951463
      32.90000000      90.00000000      45.00000000      43.95828302       1.46951665
      33.00000000      90.00000000      45.00000000      43.95834328       1.46951866
      33.10000000      90.00000000      45.00000000      43.95840354       1.46952068
      33.20000000      90.00000000      45.00000000      43.95846379       1.46952269
      33.30000000      90.00000000      45.00000000      43.95852405       1.46952471
      33.40000000      90.00000000      45.00000000      43.95858430       1.46952672
      33.50000000      90.00000000      45.00000000      43.95864455       1.46952873
      33.60000000      90.00000000      45.00000000      43.95870480       1.46953075
      33.70000000      90.00000000      45.00000000      43.95876504       1.46953276
      33.80000000      90.00000000      45.00000000      43.95882528       1.46953478
      33.90000000      90.00000000      45.00000000      43.95888552       1.46953679
      34.00000000      90.00000000      45.00000000      43.95894576       1.46953880
      34.10000000      90.00000000      45.00000000      43.95900600       1.46954082
      34.20000000      90.00000000      45.00000000      43.95906623       1.46954283
      34.30000000      90.00000000      45.00000000      43.95912646       1.46954484
      34.40000000      90.00000000      45.00000000      43.95918669       1.46954686
      34.50000000      90.00000000      45.00000000      43.95924692       1.46954887
      34.60000000      90.00000000      45.00000000      43.95930714       1.46955088
      34.70000000      90.00000000      45.00000000      43.95936737       1.46955290
      34.80000000      90.00000000      45.00000000      43.95942759       1.46955491
      34.90000000      90.00000000      45.00000000      43.95948781       1.46955692
      35.00000000      90.00000000      45.00000000      43.95954802       1.46955894
      35.10000000      90.00000000      45.00000000      43.95960824       1.46956095
      35.20000000      90.00000000      45.00000000      43.95966845       1.46956296
      35.30000000      90.00000000      45.00000000      43.95972866       1.46956498
      35.40000000      90.00000000      45.00000000      43.95978887       1.46956699
      35.50000000      90.00000000      45.00000000      43.95984908       1.46956900
      35.60000000      90.00000000      45.00000000      43.95990928       1.46957101
      35.70000000      90.00000000      45.00000000      43.95996948       1.46957303
      35.80000000      90.00000000      45.00000000      43.96002968       1.46957504
      35.90000000      90.00000000      45.00000000      43.96008988       1.46957705
      36.00000000      90.00000000      45.00000000      43.96015008       1.46957906
      36.10000000      90.00000000      45.00000000      43.96021027       1.46958108
      36.20000000      90.00000000      45.00000000      43.96027046       1.46958309
      36.30000000      90.00000000      45.00000000      43.96033065       1.46958510
      36.40000000      90.00000000      45.00000000      43.96039084       1.46958711
      36.50000000      90.00000000      45.00000000      43.96045102       1.46958912
      36.60000000      90.00000000      45.00000000      43.96051121       1.46959114
      36.70000000      90.00000000      45.00000000      43.96057139       1.46959315
      36.80000000      90.00000000      45.00000000      43.96063157       1.46959516
      36.90000000      90.00000000      45.00000000      43.96069174       1.46959717
      37.00000000      90.00000000      45.00000000      43.96075192       1.46959918
      37.10000000      90.00000000      45.00000000      43.96081209       1.46960119
      37.20000000      90.00000000      45.00000000      43.96087226       1.46960321
      37.30000000      90.00000000      45.00000000      43.96093243       1.46960522
      37.40000000      90.00000000      45.00000000      43.96099260       1.46960723
      37.50000000      90.00000000      45.00000000      43.96105277       1.46960924
      37.60000000      90.00000000      45.00000000      43.96111293       1.46961125
      37.70000000      90.00000000      45.00000000      43.96117309       1.46961326
      37.80000000      90.00000000      45.00000000      43.96123325       1.46961527
      37.90000000      90.00000000      45.00000000      43.96129341       1.46961728
      38.00000000      90.00000000      45.00000000      43.96135356       1.46961930
      38.10000000      90.00000000      45.00000000      43.96141371       1.46962131
      38.20000000      90.00000000      45.00000000      43.96147387       1.46962332
      38.30000000      90.00000000      45.00000000      43.96153401       1.46962533
      38.40000000      90.00000000      45.00000000      43.96159416       1.46962734
      38.50000000      90.00000000      45.00000000      43.96165431       1.46962935
      38.60000000      90.00000000      45.00000000      43.96171445       1.46963136
      38.70000000      90.00000000      45.00000000      43.96177459       1.46963337
      38.80000000      90.00000000      45.00000000      43.96183473       1.46963538
      38.90000000      90.00000000      45.00000000      43.96189487       1.46963739
      39.00000000      90.00000000      45.00000000      43.96195500       1.46963940
      39.10000000      90.00000000      45.00000000      43.96201514       1.46964141
      39.20000000      90.00000000      45.00000000      43.96207527       1.46964342
      39.30000000      90.00000000      45.00000000      43.96213540       1.46964543
      39.40000000      90.00000000      45.00000000      43.96219553       1.46964744
      39.50000000      90.00000000      45.00000000      43.96225565       1.46964945
      39.60000000      90.00000000      45.00000000      43.96231578       1.46965146
      39.70000000      90.00000000      45.00000000      43.96237590       1.46965347
      39.80000000      90.00000000      45.00000000      43.96243602       1.46965548
      39.90000000      90.00000000      45.00000000      43.96249614       1.46965749
      40.00000000      90.00000000      45.00000000      43.96255625       1.46965950
