 # applied field (T), theta (degree), phi (degree), abs for RE 3-4
     0.00000     0.00000     0.00000     4.71764     0.00000     0.00000     4.71764
     0.10000     0.14846   360.00000     4.71764     0.17966   360.00000     4.71764
     0.20000     0.29692   360.00000     4.71763     0.35933   360.00000     4.71763
     0.30000     0.40897   360.00000     4.71763     0.49491   360.00000     4.71763
     0.40000     0.55745   360.00000     4.71763     0.67459   360.00000     4.71763
     0.50000     0.70594   360.00000     4.71762     0.85428   360.00000     4.71762
     0.60000     0.85444   360.00000     4.71761     1.03398   360.00000     4.71761
     0.70000     0.96654   360.00000     4.71761     1.16960   360.00000     4.71761
     0.80000     1.11508   360.00000     4.71760     1.34933   360.00000     4.71759
     0.90000     1.26365   360.00000     4.71759     1.52908   360.00000     4.71758
     1.00000     1.41224   360.00000     4.71758     1.70886   360.00000     4.71757
     1.10000     1.52441   360.00000     4.71757     1.84454   360.00000     4.71756
     1.20000     1.67307   360.00000     4.71755     2.02437   360.00000     4.71754
     1.30000     1.82176   360.00000     4.71754     2.20422   360.00000     4.71752
     1.40000     1.97050   360.00000     4.71752     2.38411   360.00000     4.71750
     1.50000     2.11928   360.00000     4.71750     2.56404   360.00000     4.71748
     1.60000     2.23160   360.00000     4.71748     2.69984   360.00000     4.71747
     1.70000     2.38046   360.00000     4.71746     2.87984   360.00000     4.71744
     1.80000     2.52939   360.00000     4.71744     3.05989   360.00000     4.71742
     1.90000     2.67837   360.00000     4.71742     3.23998   360.00000     4.71739
     2.00000     2.79084   360.00000     4.71740     3.37591   360.00000     4.71737
     2.10000     2.93993   360.00000     4.71737     3.55609   360.00000     4.71734
     2.20000     3.08909   360.00000     4.71735     3.73633   360.00000     4.71731
     2.30000     3.23832   360.00000     4.71732     3.91662   360.00000     4.71728
     2.40000     3.35099   360.00000     4.71729     4.05271   360.00000     4.71726
     2.50000     3.50036   360.00000     4.71726     4.23311   360.00000     4.71722
     2.60000     3.64980   360.00000     4.71723     4.41358   360.00000     4.71719
     2.70000     3.79932   360.00000     4.71720     4.59412   360.00000     4.71715
     2.80000     3.94893   360.00000     4.71716     4.77472   360.00000     4.71711
     2.90000     4.06191   360.00000     4.71713     4.91106   360.00000     4.71708
     3.00000     4.21168   360.00000     4.71710     5.09180   360.00000     4.71704
     3.10000     4.36156   360.00000     4.71706     5.27261   360.00000     4.71699
     3.20000     4.51153   360.00000     4.71702     5.45351   360.00000     4.71695
     3.30000     4.62478   360.00000     4.71698     5.59007   360.00000     4.71692
     3.40000     4.77494   360.00000     4.71694     5.77111   360.00000     4.71687
     3.50000     4.92520   360.00000     4.71690     5.95225   360.00000     4.71682
     3.60000     5.07558   360.00000     4.71685     6.13347   360.00000     4.71677
     3.70000     5.18916   360.00000     4.71682     6.27029   360.00000     4.71673
     3.80000     5.33974   360.00000     4.71677     6.45168   360.00000     4.71668
     3.90000     5.49045   360.00000     4.71672     6.63317   360.00000     4.71663
     4.00000     5.64129   360.00000     4.71667     6.81476   360.00000     4.71657
     4.10000     5.79226   360.00000     4.71662     6.99646   360.00000     4.71651
     4.20000     5.90629   360.00000     4.71658     7.13363   360.00000     4.71647
     4.30000     6.05749   360.00000     4.71652     7.31552   360.00000     4.71641
     4.40000     6.20884   360.00000     4.71647     7.49751   360.00000     4.71635
     4.50000     6.36033   360.00000     4.71641     7.67962   360.00000     4.71629
     4.60000     6.47476   360.00000     4.71636     7.81712   360.00000     4.71624
     4.70000     6.62651   360.00000     4.71631     7.99943   360.00000     4.71618
     4.80000     6.77842   360.00000     4.71624     8.18187   360.00000     4.71611
     4.90000     6.93048   360.00000     4.71618     8.36443   360.00000     4.71604
     5.00000     7.08271   360.00000     4.71612     8.54712   360.00000     4.71597
     5.10000     7.19771   360.00000     4.71607     8.68506   360.00000     4.71592
     5.20000     7.35022   360.00000     4.71600     8.86797   360.00000     4.71585
     5.30000     7.50291   360.00000     4.71593     9.05102   360.00000     4.71578
     5.40000     7.65577   360.00000     4.71587     9.23421   360.00000     4.71570
     5.50000     7.80882   360.00000     4.71580     9.41754   360.00000     4.71563
     5.60000     7.92444   360.00000     4.71574     9.55596   360.00000     4.71557
     5.70000     8.07781   360.00000     4.71567     9.73954   360.00000     4.71549
     5.80000     8.23136   360.00000     4.71559     9.92326   360.00000     4.71541
     5.90000     8.38511   360.00000     4.71552    10.10713   360.00000     4.71533
     6.00000     8.50127   360.00000     4.71546    10.24596   360.00000     4.71527
     6.10000     8.65537   360.00000     4.71538    10.43010   360.00000     4.71519
     6.20000     8.80967   360.00000     4.71530    10.61439   360.00000     4.71510
     6.30000     8.96418   360.00000     4.71522    10.79884   360.00000     4.71502
     6.40000     9.11889   360.00000     4.71514    10.98345   360.00000     4.71493
     6.50000     9.23580   360.00000     4.71507    11.12285   360.00000     4.71487
     6.60000     9.39090   360.00000     4.71499    11.30775   360.00000     4.71478
     6.70000     9.54622   360.00000     4.71490    11.49281   360.00000     4.71469
     6.80000     9.70176   360.00000     4.71481    11.67805   360.00000     4.71460
     6.90000     9.85754   360.00000     4.71473    11.86345   360.00000     4.71450
     7.00000     9.97525   360.00000     4.71466    12.00346   360.00000     4.71443
     7.10000    10.13144   360.00000     4.71456    12.18917   360.00000     4.71434
     7.20000    10.28786   360.00000     4.71447    12.37506   360.00000     4.71424
     7.30000    10.44454   360.00000     4.71438    12.56114   360.00000     4.71414
     7.40000    10.60146   360.00000     4.71428    12.74739   360.00000     4.71404
     7.50000    10.72005   360.00000     4.71421    12.88805   360.00000     4.71397
     7.60000    10.87741   360.00000     4.71411    13.07463   360.00000     4.71387
     7.70000    11.03504   360.00000     4.71401    13.26141   360.00000     4.71377
     7.80000    11.19292   360.00000     4.71391    13.44837   360.00000     4.71366
     7.90000    11.35108   360.00000     4.71380    13.63553   360.00000     4.71356
     8.00000    11.47062   360.00000     4.71372    13.77688   360.00000     4.71348
     8.10000    11.62925   360.00000     4.71362    13.96438   360.00000     4.71337
     8.20000    11.78816   360.00000     4.71351    14.15209   360.00000     4.71326
     8.30000    11.94736   360.00000     4.71340    14.34000   360.00000     4.71315
     8.40000    12.10684   360.00000     4.71329    14.52812   360.00000     4.71304
     8.50000    12.26662   360.00000     4.71318    14.71644   360.00000     4.71293
     8.60000    12.38739   360.00000     4.71310    14.85867   360.00000     4.71285
     8.70000    12.54769   360.00000     4.71298    15.04736   360.00000     4.71273
     8.80000    12.70829   360.00000     4.71287    15.23627   360.00000     4.71262
     8.90000    12.86919   360.00000     4.71275    15.42540   360.00000     4.71250
     9.00000    13.03041   360.00000     4.71263    15.61474   360.00000     4.71239
     9.10000    13.15228   360.00000     4.71254    15.75774   360.00000     4.71230
     9.20000    13.31406   360.00000     4.71242    15.94747   360.00000     4.71218
     9.30000    13.47615   360.00000     4.71230    16.13742   360.00000     4.71206
     9.40000    13.63858   360.00000     4.71217    16.32760   360.00000     4.71194
     9.50000    13.80133   360.00000     4.71205    16.51801   360.00000     4.71182
     9.60000    13.96442   360.00000     4.71192    16.70865   360.00000     4.71169
     9.70000    14.08773   360.00000     4.71182    16.85263   360.00000     4.71160
     9.80000    14.25142   360.00000     4.71169    17.04368   360.00000     4.71147
     9.90000    14.41546   360.00000     4.71156    17.23496   360.00000     4.71135
    10.00000    14.57986   360.00000     4.71143    17.42648   360.00000     4.71122
    10.10000    14.74461   360.00000     4.71130    17.61824   360.00000     4.71109
    10.20000    14.90972   360.00000     4.71116    17.81025   360.00000     4.71096
    10.30000    15.07520   360.00000     4.71102    18.00250   360.00000     4.71083
    10.40000    15.20032   360.00000     4.71092    18.14769   360.00000     4.71073
    10.50000    15.36646   360.00000     4.71078    18.34037   360.00000     4.71060
    10.60000    15.53297   360.00000     4.71064    18.53330   360.00000     4.71047
    10.70000    15.69986   360.00000     4.71050    18.72648   360.00000     4.71034
    10.80000    15.86714   360.00000     4.71035    18.91992   360.00000     4.71020
    10.90000    16.03482   360.00000     4.71021    19.11361   360.00000     4.71007
    11.00000    16.20289   360.00000     4.71006    19.30755   360.00000     4.70993
    11.10000    16.32999   360.00000     4.70995    19.45403   360.00000     4.70983
    11.20000    16.49877   360.00000     4.70980    19.64843   360.00000     4.70969
    11.30000    16.66796   360.00000     4.70964    19.84310   360.00000     4.70955
    11.40000    16.83756   360.00000     4.70949    20.03802   360.00000     4.70941
    11.50000    17.00759   360.00000     4.70934    20.23321   360.00000     4.70927
    11.60000    17.17804   360.00000     4.70918    20.42867   360.00000     4.70913
    11.70000    17.34891   360.00000     4.70902    20.62440   360.00000     4.70899
    11.80000    17.52023   360.00000     4.70886    20.82039   360.00000     4.70884
    11.90000    17.64979   360.00000     4.70874    20.96842   360.00000     4.70873
    12.00000    17.82187   360.00000     4.70858    21.16490   360.00000     4.70859
    12.10000    17.99440   360.00000     4.70842    21.36165   360.00000     4.70844
    12.20000    18.16739   360.00000     4.70825    21.55868   360.00000     4.70830
    12.30000    18.34083   360.00000     4.70809    21.75598   360.00000     4.70815
    12.40000    18.51473   360.00000     4.70792    21.95357   360.00000     4.70800
    12.50000    18.68910   360.00000     4.70775    22.15144   360.00000     4.70786
    12.60000    18.86394   360.00000     4.70758    22.34959   360.00000     4.70771
    12.70000    19.03925   360.00000     4.70741    22.54802   360.00000     4.70756
    12.80000    19.21505   360.00000     4.70723    22.74674   360.00000     4.70741
    12.90000    19.34803   360.00000     4.70710    22.89683   360.00000     4.70729
    13.00000    19.52468   360.00000     4.70692    23.09606   360.00000     4.70714
    13.10000    19.70183   360.00000     4.70674    23.29557   360.00000     4.70699
    13.20000    19.87948   360.00000     4.70656    23.49538   360.00000     4.70683
    13.30000    20.05764   360.00000     4.70638    23.69548   360.00000     4.70668
    13.40000    20.23630   360.00000     4.70620    23.89588   360.00000     4.70653
    13.50000    20.41548   360.00000     4.70602    24.09657   360.00000     4.70637
    13.60000    20.59519   360.00000     4.70583    24.29756   360.00000     4.70622
    13.70000    20.77541   360.00000     4.70564    24.49885   360.00000     4.70606
    13.80000    20.95617   360.00000     4.70545    24.70044   360.00000     4.70590
    13.90000    21.13746   360.00000     4.70526    24.90233   360.00000     4.70575
    14.00000    21.31930   360.00000     4.70507    25.10452   360.00000     4.70559
    14.10000    21.50168   360.00000     4.70488    25.30701   360.00000     4.70543
    14.20000    21.68461   360.00000     4.70468    25.50981   360.00000     4.70527
    14.30000    21.86810   360.00000     4.70449    25.71292   360.00000     4.70511
    14.40000    22.05215   360.00000     4.70429    25.91634   360.00000     4.70495
    14.50000    22.23677   360.00000     4.70409    26.12006   360.00000     4.70479
    14.60000    22.42196   360.00000     4.70389    26.32410   360.00000     4.70463
    14.70000    22.60772   360.00000     4.70369    26.52844   360.00000     4.70447
    14.80000    22.79407   360.00000     4.70348    26.73310   360.00000     4.70431
    14.90000    22.98101   360.00000     4.70328    26.93807   360.00000     4.70415
    15.00000    23.16854   360.00000     4.70307    27.14336   360.00000     4.70398
    15.10000    23.35667   360.00000     4.70286    27.34896   360.00000     4.70382
    15.20000    23.54540   360.00000     4.70265    27.55488   360.00000     4.70366
    15.30000    23.73474   360.00000     4.70244    27.76111   360.00000     4.70349
    15.40000    23.92469   360.00000     4.70223    27.96767   360.00000     4.70333
    15.50000    24.11526   360.00000     4.70202    28.17454   360.00000     4.70316
    15.60000    24.30646   360.00000     4.70180    28.38174   360.00000     4.70300
    15.70000    24.49828   360.00000     4.70158    28.58926   360.00000     4.70283
    15.80000    24.69074   360.00000     4.70136    28.79710   360.00000     4.70266
    15.90000    24.88384   360.00000     4.70115    29.00527   360.00000     4.70250
    16.00000    25.07759   360.00000     4.70092    29.21376   360.00000     4.70233
    16.10000    25.27198   360.00000     4.70070    29.42257   360.00000     4.70216
    16.20000    25.46703   360.00000     4.70048    29.63171   360.00000     4.70200
    16.30000    25.66275   360.00000     4.70025    29.84118   360.00000     4.70183
    16.40000    25.85912   360.00000     4.70003    30.05098   360.00000     4.70166
    16.50000    26.10466   360.00000     4.69974    30.31284   360.00000     4.70145
    16.60000    26.30255   360.00000     4.69951    30.52338   360.00000     4.70129
    16.70000    26.50113   360.00000     4.69928    30.73426   360.00000     4.70112
    16.80000    26.70039   360.00000     4.69905    30.94546   360.00000     4.70095
    16.90000    26.90034   360.00000     4.69882    31.15700   360.00000     4.70078
    17.00000    27.10100   360.00000     4.69858    31.36887   360.00000     4.70061
    17.10000    27.30235   360.00000     4.69834    31.58108   360.00000     4.70044
    17.20000    27.50441   360.00000     4.69811    31.79362   360.00000     4.70027
    17.30000    27.75710   360.00000     4.69781    32.05892   360.00000     4.70006
    17.40000    27.96077   360.00000     4.69757    32.27222   360.00000     4.69989
    17.50000    28.16517   360.00000     4.69733    32.48586   360.00000     4.69972
    17.60000    28.37029   360.00000     4.69709    32.69984   360.00000     4.69955
    17.70000    28.57615   360.00000     4.69684    32.91416   360.00000     4.69938
    17.80000    28.83361   360.00000     4.69654    33.18168   360.00000     4.69917
    17.90000    29.04113   360.00000     4.69629    33.39677   360.00000     4.69900
    18.00000    29.24941   360.00000     4.69605    33.61220   360.00000     4.69882
    18.10000    29.45843   360.00000     4.69580    33.82796   360.00000     4.69865
    18.20000    29.66822   360.00000     4.69555    34.04408   360.00000     4.69848
    18.30000    29.93061   360.00000     4.69524    34.31386   360.00000     4.69827
    18.40000    30.14212   360.00000     4.69498    34.53075   360.00000     4.69810
    18.50000    30.35440   360.00000     4.69473    34.74798   360.00000     4.69793
    18.60000    30.61993   360.00000     4.69442    35.01917   360.00000     4.69771
    18.70000    30.83396   360.00000     4.69416    35.23718   360.00000     4.69754
    18.80000    31.04878   360.00000     4.69390    35.45555   360.00000     4.69737
    18.90000    31.31750   360.00000     4.69359    35.72815   360.00000     4.69716
    19.00000    31.53411   360.00000     4.69333    35.94730   360.00000     4.69698
    19.10000    31.75152   360.00000     4.69307    36.16680   360.00000     4.69681
    19.20000    32.02349   360.00000     4.69275    36.44083   360.00000     4.69660
    19.30000    32.24271   360.00000     4.69249    36.66112   360.00000     4.69643
    19.40000    32.46275   360.00000     4.69222    36.88177   360.00000     4.69625
    19.50000    32.73801   360.00000     4.69190    37.15723   360.00000     4.69604
    19.60000    32.95989   360.00000     4.69164    37.37867   360.00000     4.69587
    19.70000    33.23747   360.00000     4.69131    37.65514   360.00000     4.69565
    19.80000    33.46121   360.00000     4.69104    37.87738   360.00000     4.69548
    19.90000    33.74112   360.00000     4.69072    38.15485   360.00000     4.69527
    20.00000    33.96674   360.00000     4.69045    38.37790   360.00000     4.69510
    20.10000    34.24901   360.00000     4.69012    38.65638   360.00000     4.69488
    20.20000    34.47652   360.00000     4.68985    38.88023   360.00000     4.69471
    20.30000    34.76116   360.00000     4.68952    39.15972   360.00000     4.69450
    20.40000    34.99059   360.00000     4.68925    39.38439   360.00000     4.69432
    20.50000    35.27762   360.00000     4.68892    39.66490   360.00000     4.69411
    20.60000    35.50897   360.00000     4.68865    39.89038   360.00000     4.69394
    20.70000    35.79841   360.00000     4.68832    40.17192   360.00000     4.69372
    20.80000    36.08920   360.00000     4.68799    40.45403   360.00000     4.69351
    20.90000    36.32356   360.00000     4.68772    40.68078   360.00000     4.69334
    21.00000    36.61679   360.00000     4.68738    40.96392   360.00000     4.69312
    21.10000    36.91136   360.00000     4.68705    41.24764   360.00000     4.69291
    21.20000    37.14876   360.00000     4.68678    41.47568   360.00000     4.69274
    21.30000    37.44579   360.00000     4.68644    41.76044   360.00000     4.69252
    21.40000    37.74418   360.00000     4.68611    42.04578   360.00000     4.69231
    21.50000    38.04393   360.00000     4.68578    42.33171   360.00000     4.69210
    21.60000    38.28549   360.00000     4.68551    42.56151   360.00000     4.69192
    21.70000    38.58771   360.00000     4.68517    42.84849   360.00000     4.69171
    21.80000    38.89131   360.00000     4.68484    43.13605   360.00000     4.69150
    21.90000    39.19627   360.00000     4.68451    43.42421   360.00000     4.69128
    22.00000    39.50261   360.00000     4.68418    43.71296   360.00000     4.69107
    22.10000    39.81032   360.00000     4.68385    44.00230   360.00000     4.69085
    22.20000    40.11941   360.00000     4.68352    44.29224   360.00000     4.69064
    22.30000    40.42987   360.00000     4.68319    44.58277   360.00000     4.69043
    22.40000    40.74170   360.00000     4.68286    44.87391   360.00000     4.69021
    22.50000    41.05490   360.00000     4.68254    45.16565   360.00000     4.69000
    22.60000    41.36947   360.00000     4.68221    45.45800   360.00000     4.68978
    22.70000    41.68541   360.00000     4.68189    45.75095   360.00000     4.68957
    22.80000    42.00271   360.00000     4.68156    46.04451   360.00000     4.68935
    22.90000    42.38450   360.00000     4.68118    46.39697   360.00000     4.68910
    23.00000    42.70478   360.00000     4.68086    46.69189   360.00000     4.68888
    23.10000    43.02642   360.00000     4.68055    46.98742   360.00000     4.68867
    23.20000    43.34941   360.00000     4.68023    47.28358   360.00000     4.68845
    23.30000    43.73800   360.00000     4.67986    47.63917   360.00000     4.68820
    23.40000    44.06393   360.00000     4.67955    47.93670   360.00000     4.68798
    23.50000    44.45604   360.00000     4.67918    48.29395   360.00000     4.68772
    23.60000    44.78488   360.00000     4.67887    48.59287   360.00000     4.68751
    23.70000    45.18047   360.00000     4.67851    48.95180   360.00000     4.68725
    23.80000    45.51219   360.00000     4.67821    49.25212   360.00000     4.68703
    23.90000    45.91122   360.00000     4.67786    49.61275   360.00000     4.68677
    24.00000    46.31210   360.00000     4.67751    49.97431   360.00000     4.68652
    24.10000    46.64819   360.00000     4.67721    50.27683   360.00000     4.68630
    24.20000    47.05242   360.00000     4.67687    50.64012   360.00000     4.68604
    24.30000    47.45846   360.00000     4.67653    51.00435   360.00000     4.68578
    24.40000    47.86628   360.00000     4.67620    51.36954   360.00000     4.68552
    24.50000    48.27587   360.00000     4.67587    51.73569   360.00000     4.68526
    24.60000    48.68721   360.00000     4.67555    52.10281   360.00000     4.68500
    24.70000    49.10027   360.00000     4.67523    52.47090   360.00000     4.68473
    24.80000    49.51504   360.00000     4.67491    52.83996   360.00000     4.68447
    24.90000    50.00044   360.00000     4.67455    53.27130   360.00000     4.68417
    25.00000    50.41881   360.00000     4.67425    53.64250   360.00000     4.68390
    25.10000    50.83881   360.00000     4.67395    54.01470   360.00000     4.68364
    25.20000    51.33022   360.00000     4.67362    54.44973   360.00000     4.68333
    25.30000    51.75365   360.00000     4.67333    54.82411   360.00000     4.68307
    25.40000    52.24900   360.00000     4.67301    55.26171   360.00000     4.68276
    25.50000    52.74641   360.00000     4.67269    55.70070   360.00000     4.68245
    25.60000    53.24582   360.00000     4.67239    56.14109   360.00000     4.68214
    25.70000    53.74720   360.00000     4.67209    56.58291   360.00000     4.68183
    25.80000    54.25050   360.00000     4.67180    57.02614   360.00000     4.68152
    25.90000    54.75565   360.00000     4.67152    57.47081   360.00000     4.68120
    26.00000    55.26262   360.00000     4.67125    57.91693   360.00000     4.68089
    26.10000    55.84368   360.00000     4.67095    58.42817   360.00000     4.68053
    26.20000    56.35436   360.00000     4.67070    58.87741   360.00000     4.68022
    26.30000    56.93954   360.00000     4.67042    59.39226   360.00000     4.67986
    26.40000    57.52679   360.00000     4.67015    59.90904   360.00000     4.67950
    26.50000    58.11605   360.00000     4.66990    60.42778   360.00000     4.67914
    26.60000    58.70722   360.00000     4.66966    60.94847   360.00000     4.67878
    26.70000    59.37410   360.00000     4.66940    61.53630   360.00000     4.67837
    26.80000    59.96908   360.00000     4.66918    62.06121   360.00000     4.67801
    26.90000    60.64003   360.00000     4.66895    62.65380   360.00000     4.67760
    27.00000    61.31299   360.00000     4.66873    63.24893   360.00000     4.67720
    27.10000    61.98782   360.00000     4.66853    63.84660   360.00000     4.67679
    27.20000    62.73939   360.00000     4.66832    64.51343   360.00000     4.67634
    27.30000    63.41782   360.00000     4.66815    65.11650   360.00000     4.67593
    27.40000    64.17312   360.00000     4.66797    65.78934   360.00000     4.67549
    27.50000    64.93018   360.00000     4.66780    66.46535   360.00000     4.67504
    27.60000    65.76453   360.00000     4.66764    67.21240   360.00000     4.67455
    27.70000    66.60065   360.00000     4.66750    67.96328   360.00000     4.67407
    27.80000    67.51437   360.00000     4.66736    68.78658   360.00000     4.67354
    27.90000    68.35362   360.00000     4.66725    69.54539   360.00000     4.67307
    28.00000    69.34664   360.00000     4.66713    70.44666   360.00000     4.67251
    28.10000    70.34116   360.00000     4.66704    71.35310   360.00000     4.67197
    28.20000    71.33694   360.00000     4.66696    72.26464   360.00000     4.67143
    28.30000    72.48690   360.00000     4.66689    73.32236   360.00000     4.67084
    28.40000    73.63797   360.00000     4.66683    74.38655   360.00000     4.67026
    28.50000    74.94330   360.00000     4.66679    75.59997   360.00000     4.66963
    28.60000    76.32614   360.00000     4.66677    76.89305   360.00000     4.66900
    28.70000    77.86308   360.00000     4.66676    78.33913   360.00000     4.66835
    28.80000    79.63073   360.00000     4.66676    80.01327   360.00000     4.66767
    28.90000    81.70561   360.00000     4.66677    81.99205   360.00000     4.66699
    29.00000    84.54810   360.00000     4.66680    84.72291   360.00000     4.66628
    29.10000    90.00000   360.00000     4.66683    90.00000   360.00000     4.66572
    29.20000    90.00000   360.00000     4.66681    90.00000   360.00000     4.66570
    29.30000    90.00000   360.00000     4.66679    90.00000   360.00000     4.66568
    29.40000    90.00000   360.00000     4.66676    90.00000   360.00000     4.66567
    29.50000    90.00000   360.00000     4.66674    90.00000   360.00000     4.66565
    29.60000    90.00000   360.00000     4.66672    90.00000   360.00000     4.66563
    29.70000    90.00000   360.00000     4.66670    90.00000   360.00000     4.66561
    29.80000    90.00000   360.00000     4.66667    90.00000   360.00000     4.66559
    29.90000    90.00000   360.00000     4.66665    90.00000   360.00000     4.66557
    30.00000    90.00000   360.00000     4.66663    90.00000   360.00000     4.66555
    30.10000    90.00000   360.00000     4.66661    90.00000   360.00000     4.66554
    30.20000    90.00000   360.00000     4.66658    90.00000   360.00000     4.66552
    30.30000    90.00000   360.00000     4.66656    90.00000   360.00000     4.66550
    30.40000    90.00000   360.00000     4.66654    90.00000   360.00000     4.66548
    30.50000    90.00000   360.00000     4.66652    90.00000   360.00000     4.66546
    30.60000    90.00000   360.00000     4.66649    90.00000   360.00000     4.66544
    30.70000    90.00000   360.00000     4.66647    90.00000   360.00000     4.66542
    30.80000    90.00000   360.00000     4.66645    90.00000   360.00000     4.66541
    30.90000    90.00000   360.00000     4.66643    90.00000   360.00000     4.66539
    31.00000    90.00000   360.00000     4.66640    90.00000   360.00000     4.66537
    31.10000    90.00000   360.00000     4.66638    90.00000   360.00000     4.66535
    31.20000    90.00000   360.00000     4.66636    90.00000   360.00000     4.66533
    31.30000    90.00000   360.00000     4.66633    90.00000   360.00000     4.66531
    31.40000    90.00000   360.00000     4.66631    90.00000   360.00000     4.66529
    31.50000    90.00000   360.00000     4.66629    90.00000   360.00000     4.66528
    31.60000    90.00000   360.00000     4.66627    90.00000   360.00000     4.66526
    31.70000    90.00000   360.00000     4.66624    90.00000   360.00000     4.66524
    31.80000    90.00000   360.00000     4.66622    90.00000   360.00000     4.66522
    31.90000    90.00000   360.00000     4.66620    90.00000   360.00000     4.66520
    32.00000    90.00000   360.00000     4.66618    90.00000   360.00000     4.66518
    32.10000    90.00000   360.00000     4.66615    90.00000   360.00000     4.66516
    32.20000    90.00000   360.00000     4.66613    90.00000   360.00000     4.66514
    32.30000    90.00000   360.00000     4.66611    90.00000   360.00000     4.66513
    32.40000    90.00000   360.00000     4.66609    90.00000   360.00000     4.66511
    32.50000    90.00000   360.00000     4.66606    90.00000   360.00000     4.66509
    32.60000    90.00000   360.00000     4.66604    90.00000   360.00000     4.66507
    32.70000    90.00000   360.00000     4.66602    90.00000   360.00000     4.66505
    32.80000    90.00000   360.00000     4.66600    90.00000   360.00000     4.66503
    32.90000    90.00000   360.00000     4.66597    90.00000   360.00000     4.66501
    33.00000    90.00000   360.00000     4.66595    90.00000   360.00000     4.66500
    33.10000    90.00000   360.00000     4.66593    90.00000   360.00000     4.66498
    33.20000    90.00000   360.00000     4.66590    90.00000   360.00000     4.66496
    33.30000    90.00000   360.00000     4.66588    90.00000   360.00000     4.66494
    33.40000    90.00000   360.00000     4.66586    90.00000   360.00000     4.66492
    33.50000    90.00000   360.00000     4.66584    90.00000   360.00000     4.66490
    33.60000    90.00000   360.00000     4.66581    90.00000   360.00000     4.66488
    33.70000    90.00000   360.00000     4.66579    90.00000   360.00000     4.66486
    33.80000    90.00000   360.00000     4.66577    90.00000   360.00000     4.66485
    33.90000    90.00000   360.00000     4.66575    90.00000   360.00000     4.66483
    34.00000    90.00000   360.00000     4.66572    90.00000   360.00000     4.66481
    34.10000    90.00000   360.00000     4.66570    90.00000   360.00000     4.66479
    34.20000    90.00000   360.00000     4.66568    90.00000   360.00000     4.66477
    34.30000    90.00000   360.00000     4.66566    90.00000   360.00000     4.66475
    34.40000    90.00000   360.00000     4.66563    90.00000   360.00000     4.66473
    34.50000    90.00000   360.00000     4.66561    90.00000   360.00000     4.66471
    34.60000    90.00000   360.00000     4.66559    90.00000   360.00000     4.66470
    34.70000    90.00000   360.00000     4.66556    90.00000   360.00000     4.66468
    34.80000    90.00000   360.00000     4.66554    90.00000   360.00000     4.66466
    34.90000    90.00000   360.00000     4.66552    90.00000   360.00000     4.66464
    35.00000    90.00000   360.00000     4.66550    90.00000   360.00000     4.66462
    35.10000    90.00000   360.00000     4.66547    90.00000   360.00000     4.66460
    35.20000    90.00000   360.00000     4.66545    90.00000   360.00000     4.66458
    35.30000    90.00000   360.00000     4.66543    90.00000   360.00000     4.66456
    35.40000    90.00000   360.00000     4.66541    90.00000   360.00000     4.66455
    35.50000    90.00000   360.00000     4.66538    90.00000   360.00000     4.66453
    35.60000    90.00000   360.00000     4.66536    90.00000   360.00000     4.66451
    35.70000    90.00000   360.00000     4.66534    90.00000   360.00000     4.66449
    35.80000    90.00000   360.00000     4.66531    90.00000   360.00000     4.66447
    35.90000    90.00000   360.00000     4.66529    90.00000   360.00000     4.66445
    36.00000    90.00000   360.00000     4.66527    90.00000   360.00000     4.66443
    36.10000    90.00000   360.00000     4.66525    90.00000   360.00000     4.66441
    36.20000    90.00000   360.00000     4.66522    90.00000   360.00000     4.66439
    36.30000    90.00000   360.00000     4.66520    90.00000   360.00000     4.66438
    36.40000    90.00000   360.00000     4.66518    90.00000   360.00000     4.66436
    36.50000    90.00000   360.00000     4.66515    90.00000   360.00000     4.66434
    36.60000    90.00000   360.00000     4.66513    90.00000   360.00000     4.66432
    36.70000    90.00000   360.00000     4.66511    90.00000   360.00000     4.66430
    36.80000    90.00000   360.00000     4.66509    90.00000   360.00000     4.66428
    36.90000    90.00000   360.00000     4.66506    90.00000   360.00000     4.66426
    37.00000    90.00000   360.00000     4.66504    90.00000   360.00000     4.66424
    37.10000    90.00000   360.00000     4.66502    90.00000   360.00000     4.66422
    37.20000    90.00000   360.00000     4.66500    90.00000   360.00000     4.66421
    37.30000    90.00000   360.00000     4.66497    90.00000   360.00000     4.66419
    37.40000    90.00000   360.00000     4.66495    90.00000   360.00000     4.66417
    37.50000    90.00000   360.00000     4.66493    90.00000   360.00000     4.66415
    37.60000    90.00000   360.00000     4.66490    90.00000   360.00000     4.66413
    37.70000    90.00000   360.00000     4.66488    90.00000   360.00000     4.66411
    37.80000    90.00000   360.00000     4.66486    90.00000   360.00000     4.66409
    37.90000    90.00000   360.00000     4.66484    90.00000   360.00000     4.66407
    38.00000    90.00000   360.00000     4.66481    90.00000   360.00000     4.66405
    38.10000    90.00000   360.00000     4.66479    90.00000   360.00000     4.66404
    38.20000    90.00000   360.00000     4.66477    90.00000   360.00000     4.66402
    38.30000    90.00000   360.00000     4.66474    90.00000   360.00000     4.66400
    38.40000    90.00000   360.00000     4.66472    90.00000   360.00000     4.66398
    38.50000    90.00000   360.00000     4.66470    90.00000   360.00000     4.66396
    38.60000    90.00000   360.00000     4.66468    90.00000   360.00000     4.66394
    38.70000    90.00000   360.00000     4.66465    90.00000   360.00000     4.66392
    38.80000    90.00000   360.00000     4.66463    90.00000   360.00000     4.66390
    38.90000    90.00000   360.00000     4.66461    90.00000   360.00000     4.66388
    39.00000    90.00000   360.00000     4.66458    90.00000   360.00000     4.66387
    39.10000    90.00000   360.00000     4.66456    90.00000   360.00000     4.66385
    39.20000    90.00000   360.00000     4.66454    90.00000   360.00000     4.66383
    39.30000    90.00000   360.00000     4.66452    90.00000   360.00000     4.66381
    39.40000    90.00000   360.00000     4.66449    90.00000   360.00000     4.66379
    39.50000    90.00000   360.00000     4.66447    90.00000   360.00000     4.66377
    39.60000    90.00000   360.00000     4.66445    90.00000   360.00000     4.66375
    39.70000    90.00000   360.00000     4.66442    90.00000   360.00000     4.66373
    39.80000    90.00000   360.00000     4.66440    90.00000   360.00000     4.66371
    39.90000    90.00000   360.00000     4.66438    90.00000   360.00000     4.66369
    40.00000    90.00000   360.00000     4.66436    90.00000   360.00000     4.66368
