 # applied field (T), theta (degree), phi (degree), abs for RE 3-4
     0.00000   180.00000   360.00000     3.79005   180.00000   360.00000     3.79005
     0.10000   179.67894   180.00000     3.79001   179.64480   180.00000     3.79004
     0.20000   179.35787   180.00000     3.78990   179.28960   180.00000     3.79001
     0.30000   179.03678   180.00000     3.78972   178.93439   180.00000     3.78997
     0.40000   178.66965   180.00000     3.78942   178.52831   180.00000     3.78990
     0.50000   178.34849   180.00000     3.78908   178.17305   180.00000     3.78982
     0.60000   178.02729   180.00000     3.78867   177.81776   180.00000     3.78972
     0.70000   177.70604   180.00000     3.78818   177.46242   180.00000     3.78961
     0.80000   177.38472   180.00000     3.78762   177.10704   180.00000     3.78948
     0.90000   177.06332   180.00000     3.78699   176.75162   180.00000     3.78933
