 # applied field (T), theta (degree), phi (degree), abs for RE 1-2
     0.00000    90.00000   224.55208     0.03166    90.00000   224.55208     0.03166
     0.10000    93.25784   225.44792     0.03171    93.25784   225.44792     0.03171
     0.20000    97.01530   225.44792     0.03189    97.01530   225.44792     0.03189
     0.30000   100.20667   224.55208     0.03215   100.20667   224.55208     0.03215
     0.40000   103.83773   224.55208     0.03257   103.83773   224.55208     0.03257
     0.50000   106.88223   225.44792     0.03302   106.88223   225.44792     0.03302
     0.60000   110.30501   225.44792     0.03366   110.30501   225.44792     0.03366
     0.70000   113.14387   224.55208     0.03430   113.14387   224.55208     0.03430
     0.80000   115.87479   225.44792     0.03502   115.87479   225.44792     0.03502
     0.90000   118.90459   224.55207     0.03594   118.90459   224.55207     0.03594
     1.00000   121.38895   225.44793     0.03680   121.38895   225.44793     0.03680
     1.10000   124.12863   224.55207     0.03789   124.12863   224.55207     0.03789
     1.20000   126.36424   224.55207     0.03888   126.36424   224.55207     0.03888
     1.30000   128.82017   225.44793     0.04010   128.82017   225.44793     0.04010
     1.40000   130.81857   224.55207     0.04120   130.81857   224.55207     0.04120
     1.50000   132.71347   225.44794     0.04234   132.71347   225.44794     0.04234
     1.60000   134.79003   225.00000     0.04372   134.79003   225.00000     0.04372
     1.70000   136.47726   225.00000     0.04495   136.47726   225.00000     0.04495
     1.80000   138.32574   225.00000     0.04642   138.32574   225.00000     0.04642
     1.90000   139.82832   225.00000     0.04771   139.82832   225.00000     0.04771
     2.00000   141.47554   225.00000     0.04925   141.47554   225.00000     0.04925
     2.10000   142.81595   225.00000     0.05060   142.81595   225.00000     0.05060
     2.20000   144.08849   225.00000     0.05197   144.08849   225.00000     0.05197
     2.30000   145.48615   225.00000     0.05359   145.48615   225.00000     0.05359
     2.40000   146.62616   225.00000     0.05501   146.62616   225.00000     0.05501
     2.50000   147.88021   225.45667     0.05668   147.88021   225.45667     0.05668
     2.60000   148.90514   224.54333     0.05813   148.90514   224.54333     0.05813
     2.70000   150.03475   224.54332     0.05983   150.03475   224.54332     0.05983
     2.80000   150.95976   224.54332     0.06130   150.95976   224.54332     0.06130
     2.90000   151.84307   224.54331     0.06279   151.84307   224.54331     0.06279
     3.00000   152.81929   225.45669     0.06454   152.81929   225.45669     0.06454
     3.10000   153.62121   225.00000     0.06605   153.62121   225.00000     0.06605
     3.20000   154.50901   225.00000     0.06781   154.50901   225.00000     0.06781
     3.30000   155.23969   225.00000     0.06934   155.23969   225.00000     0.06934
     3.40000   155.94053   225.00000     0.07088   155.94053   225.00000     0.07088
     3.50000   156.71860   225.00000     0.07267   156.71860   225.00000     0.07267
     3.60000   157.36081   225.00000     0.07421   157.36081   225.00000     0.07421
     3.70000   158.07490   224.53422     0.07602   158.07490   224.53422     0.07602
     3.80000   158.66549   225.46579     0.07757   158.66549   225.46579     0.07757
     3.90000   159.23429   224.53421     0.07913   159.23429   224.53421     0.07913
     4.00000   159.86834   225.46580     0.08095   159.86834   225.46580     0.08095
     4.10000   160.39412   225.00000     0.08252   160.39412   225.00000     0.08252
     4.20000   160.90150   225.00000     0.08409   160.90150   225.00000     0.08409
     4.30000   161.46832   225.00000     0.08591   161.46832   225.00000     0.08591
     4.40000   161.93937   225.00000     0.08748   161.93937   225.00000     0.08748
     4.50000   162.46622   224.52474     0.08931   162.46622   224.52474     0.08931
     4.60000   162.90481   224.52474     0.09089   162.90481   224.52474     0.09089
     4.70000   163.32953   225.47527     0.09246   163.32953   225.47527     0.09246
     4.80000   163.80551   225.47529     0.09430   163.80551   225.47529     0.09430
     4.90000   164.20259   225.00000     0.09587   164.20259   225.00000     0.09587
     5.00000   164.58769   225.00000     0.09745   164.58769   225.00000     0.09745
     5.10000   165.01998   225.00000     0.09928   165.01998   225.00000     0.09928
     5.20000   165.38120   225.00000     0.10085   165.38120   225.00000     0.10085
     5.30000   165.78703   224.51486     0.10268   165.78703   224.51486     0.10268
     5.40000   166.12662   224.51485     0.10425   166.12662   224.51485     0.10425
     5.50000   166.45687   225.48517     0.10582   166.45687   225.48517     0.10582
     5.60000   166.82855   225.00000     0.10765   166.82855   225.00000     0.10765
     5.70000   167.13993   225.00000     0.10921   167.13993   225.00000     0.10921
     5.80000   167.44314   225.00000     0.11078   167.44314   225.00000     0.11078
     5.90000   167.78467   225.49544     0.11259   167.78467   225.49544     0.11259
     6.00000   168.07132   224.50455     0.11415   168.07132   224.50455     0.11415
     6.10000   168.35078   225.49547     0.11571   168.35078   225.49547     0.11571
     6.20000   168.66602   225.00000     0.11751   168.66602   225.00000     0.11751
     6.30000   168.93084   225.00000     0.11906   168.93084   225.00000     0.11906
     6.40000   169.22971   225.00000     0.12086   169.22971   225.00000     0.12086
     6.50000   169.48096   225.50619     0.12240   169.48096   225.50619     0.12240
     6.60000   169.72637   225.50621     0.12394   169.72637   225.50621     0.12394
     6.70000   170.00359   224.49377     0.12573   170.00359   224.49377     0.12573
     6.80000   170.23700   225.00000     0.12726   170.23700   225.00000     0.12726
     6.90000   170.46506   225.00000     0.12879   170.46506   225.00000     0.12879
     7.00000   170.72281   224.48258     0.13056   170.72281   224.48258     0.13056
     7.10000   170.94003   225.51744     0.13208   170.94003   225.51744     0.13208
     7.20000   171.15248   224.48254     0.13360   171.15248   224.48254     0.13360
     7.30000   171.39286   225.00000     0.13535   171.39286   225.00000     0.13535
     7.40000   171.59551   225.00000     0.13686   171.59551   225.00000     0.13686
     7.50000   171.82478   224.47083     0.13860   171.82478   224.47083     0.13860
     7.60000   172.01826   225.52919     0.14010   172.01826   225.52919     0.14010
     7.70000   172.20767   225.52921     0.14159   172.20767   225.52921     0.14159
     7.80000   172.42218   225.00000     0.14332   172.42218   225.00000     0.14332
     7.90000   172.60322   225.00000     0.14479   172.60322   225.00000     0.14479
     8.00000   172.80821   225.54147     0.14651   172.80821   225.54147     0.14651
     8.10000   172.98136   225.54150     0.14797   172.98136   225.54150     0.14797
     8.20000   173.15101   224.45847     0.14944   173.15101   224.45847     0.14944
     8.30000   173.34327   225.00000     0.15113   173.34327   225.00000     0.15113
     8.40000   173.50565   225.00000     0.15258   173.50565   225.00000     0.15258
     8.50000   173.68962   225.55438     0.15426   173.68962   225.55438     0.15426
     8.60000   173.84513   225.55442     0.15570   173.84513   225.55442     0.15570
     8.70000   174.02144   225.00000     0.15736   174.02144   225.00000     0.15736
     8.80000   174.17041   225.00000     0.15878   174.17041   225.00000     0.15878
     8.90000   174.33924   225.56790     0.16043   174.33924   225.56790     0.16043
     9.00000   174.48201   224.43206     0.16184   174.48201   224.43206     0.16184
     9.10000   174.62204   225.00000     0.16324   174.62204   225.00000     0.16324
     9.20000   174.78074   225.00000     0.16487   174.78074   225.00000     0.16487
     9.30000   174.91489   225.58210     0.16625   174.91489   225.58210     0.16625
     9.40000   175.06703   224.41784     0.16786   175.06703   224.41784     0.16786
     9.50000   175.21582   225.00000     0.16946   175.21582   225.00000     0.16946
     9.60000   175.34158   225.00000     0.17082   175.34158   225.00000     0.17082
     9.70000   175.48415   224.40293     0.17240   175.48415   224.40293     0.17240
     9.80000   175.60473   224.40288     0.17375   175.60473   224.40288     0.17375
     9.90000   175.74149   225.00000     0.17531   175.74149   225.00000     0.17531
    10.00000   175.85708   225.00000     0.17665   175.85708   225.00000     0.17665
    10.10000   175.98811   224.38716     0.17819   175.98811   224.38716     0.17819
    10.20000   176.11624   225.61292     0.17972   176.11624   225.61292     0.17972
    10.30000   176.22458   225.00000     0.18103   176.22458   225.00000     0.18103
    10.40000   176.34738   225.00000     0.18254   176.34738   225.00000     0.18254
    10.50000   176.46736   225.62950     0.18404   176.46736   225.62950     0.18404
    10.60000   176.56881   225.00000     0.18532   176.56881   225.00000     0.18532
    10.70000   176.68378   225.00000     0.18680   176.68378   225.00000     0.18680
    10.80000   176.79608   224.35298     0.18827   176.79608   224.35298     0.18827
    10.90000   176.90583   225.64713     0.18973   176.90583   225.64713     0.18973
    11.00000   177.01307   225.00000     0.19118   177.01307   225.00000     0.19118
    11.10000   177.10356   224.33444     0.19241   177.10356   224.33444     0.19241
    11.20000   177.20614   224.33431     0.19383   177.20614   224.33431     0.19383
    11.30000   177.30634   225.00000     0.19524   177.30634   225.00000     0.19524
    11.40000   177.40412   225.00000     0.19664   177.40412   225.00000     0.19664
    11.50000   177.49953   224.31461     0.19803   177.49953   224.31461     0.19803
    11.60000   177.59270   225.00000     0.19941   177.59270   225.00000     0.19941
    11.70000   177.68358   225.00000     0.20077   177.68358   225.00000     0.20077
    11.80000   177.77219   224.29368     0.20212   177.77219   224.29368     0.20212
    11.90000   177.85867   225.00000     0.20346   177.85867   225.00000     0.20346
    12.00000   177.94295   225.00000     0.20478   177.94295   225.00000     0.20478
    12.10000   178.03620   224.27134     0.20629   178.03620   224.27134     0.20629
    12.20000   178.11600   225.00000     0.20758   178.11600   225.00000     0.20758
    12.30000   178.19371   225.00000     0.20886   178.19371   225.00000     0.20886
    12.40000   178.26936   224.24755     0.21013   178.26936   224.24755     0.21013
    12.50000   178.35306   225.00000     0.21157   178.35306   225.00000     0.21157
    12.60000   178.42449   225.00000     0.21281   178.42449   225.00000     0.21281
    12.70000   178.50340   225.77803     0.21422   178.50340   225.77803     0.21422
    12.80000   178.57074   225.00000     0.21542   178.57074   225.00000     0.21542
    12.90000   178.64506   225.80510     0.21679   178.64506   225.80510     0.21679
    13.00000   178.70839   224.19455     0.21797   178.70839   224.19455     0.21797
    13.10000   178.77830   225.00000     0.21931   178.77830   225.00000     0.21931
    13.20000   178.84585   225.83465     0.22062   178.84585   225.83465     0.22062
    13.30000   178.91117   225.00000     0.22192   178.91117   225.00000     0.22192
    13.40000   178.97420   224.13389     0.22320   178.97420   224.13389     0.22320
    13.50000   179.03505   225.86672     0.22446   179.03505   225.86672     0.22446
    13.60000   179.09376   225.00000     0.22570   179.09376   225.00000     0.22570
    13.70000   179.15029   224.09914     0.22691   179.15029   224.09914     0.22691
    13.80000   179.21132   225.00000     0.22827   179.21132   225.00000     0.22827
    13.90000   179.26345   224.06193     0.22944   179.26345   224.06193     0.22944
    14.00000   179.31965   225.00000     0.23075   179.31965   225.00000     0.23075
    14.10000   179.36755   225.00000     0.23188   179.36755   225.00000     0.23188
    14.20000   179.41905   224.01985     0.23314   179.41905   224.01985     0.23314
    14.30000   179.46819   225.00000     0.23437   179.46819   225.00000     0.23437
    14.40000   179.51495   226.02544     0.23558   179.51495   226.02544     0.23558
    14.50000   179.55945   225.00000     0.23676   179.55945   225.00000     0.23676
    14.60000   179.60622   223.92387     0.23804   179.60622   223.92387     0.23804
    14.70000   179.64604   225.00000     0.23917   179.64604   225.00000     0.23917
    14.80000   179.68776   223.86664     0.24039   179.68776   223.86664     0.24039
    14.90000   179.72694   225.00000     0.24158   179.72694   225.00000     0.24158
    15.00000   179.76359   223.80004     0.24274   179.76359   223.80004     0.24274
    15.10000   179.79783   225.00000     0.24386   179.79783   225.00000     0.24386
    15.20000   179.83282   225.00000     0.24507   179.83282   225.00000     0.24507
    15.30000   179.86502   226.36698     0.24623   179.86502   226.36698     0.24623
    15.40000   179.89722   225.00000     0.24747   179.89722   225.00000     0.24747
    15.50000   179.92392   226.51384     0.24855   179.92392   226.51384     0.24855
    15.60000   179.95249   223.29535     0.24978   179.95249   223.29535     0.24978
    15.70000   179.97584   225.00000     0.25087   179.97584   225.00000     0.25087
    15.80000   179.99812   233.53818     0.25199   179.99812   233.53818     0.25199
    15.90000   179.98112    45.91004     0.25315   179.98112    45.91004     0.25315
    16.00000   179.96249    45.00000     0.25432   179.96249    45.00000     0.25432
    16.10000   179.94746    45.00000     0.25542   179.94746    45.00000     0.25542
    16.20000   179.93505    45.00000     0.25651   179.93505    45.00000     0.25651
    16.30000   179.92513    45.00000     0.25764   179.92513    45.00000     0.25764
    16.40000   179.91903    45.00000     0.25873   179.91903    45.00000     0.25873
    16.50000   179.91684    45.00000     0.25985   179.91684    45.00000     0.25985
    16.60000   179.91997    47.96205     0.26094   179.91997    47.96205     0.26094
    16.70000   179.93102    45.00000     0.26206   179.93102    45.00000     0.26206
    16.80000   179.95711    51.41691     0.26314   179.95711    51.41691     0.26314
    16.90000   180.00000   360.00000     0.26353   180.00000   360.00000     0.26353
    17.00000   180.00000   360.00000     0.26332   180.00000   360.00000     0.26332
    17.10000   180.00000   180.00000     0.26311   180.00000   180.00000     0.26311
    17.20000   180.00000   180.00000     0.26291   180.00000   180.00000     0.26291
    17.30000   180.00000   180.00000     0.26270   180.00000   180.00000     0.26270
    17.40000   180.00000   180.00000     0.26250   180.00000   180.00000     0.26250
    17.50000   180.00000   180.00000     0.26229   180.00000   180.00000     0.26229
    17.60000   180.00000   360.00000     0.26209   180.00000   360.00000     0.26209
    17.70000   180.00000   360.00000     0.26188   180.00000   360.00000     0.26188
    17.80000   180.00000   180.00000     0.26167   180.00000   180.00000     0.26167
    17.90000   180.00000   180.00000     0.26147   180.00000   180.00000     0.26147
    18.00000   180.00000   360.00000     0.26126   180.00000   360.00000     0.26126
    18.10000   180.00000   360.00000     0.26106   180.00000   360.00000     0.26106
    18.20000   180.00000   360.00000     0.26085   180.00000   360.00000     0.26085
    18.30000   180.00000   180.00000     0.26065   180.00000   180.00000     0.26065
    18.40000   180.00000   360.00000     0.26044   180.00000   360.00000     0.26044
    18.50000   180.00000   180.00000     0.26024   180.00000   180.00000     0.26024
    18.60000   180.00000   360.00000     0.26003   180.00000   360.00000     0.26003
    18.70000   180.00000   180.00000     0.25982   180.00000   180.00000     0.25982
    18.80000   180.00000   180.00000     0.25962   180.00000   180.00000     0.25962
    18.90000   180.00000   360.00000     0.25941   180.00000   360.00000     0.25941
    19.00000   180.00000   360.00000     0.25921   180.00000   360.00000     0.25921
    19.10000   180.00000   180.00000     0.25900   180.00000   180.00000     0.25900
    19.20000   180.00000   180.00000     0.25880   180.00000   180.00000     0.25880
    19.30000   180.00000   360.00000     0.25859   180.00000   360.00000     0.25859
    19.40000   180.00000   360.00000     0.25838   180.00000   360.00000     0.25838
    19.50000   180.00000   180.00000     0.25818   180.00000   180.00000     0.25818
    19.60000   180.00000   180.00000     0.25797   180.00000   180.00000     0.25797
    19.70000   180.00000   180.00000     0.25777   180.00000   180.00000     0.25777
    19.80000   180.00000   360.00000     0.25756   180.00000   360.00000     0.25756
    19.90000   180.00000   360.00000     0.25736   180.00000   360.00000     0.25736
    20.00000   180.00000   360.00000     0.25715   180.00000   360.00000     0.25715
    20.10000   180.00000   180.00000     0.25695   180.00000   180.00000     0.25695
    20.20000   180.00000   180.00000     0.25674   180.00000   180.00000     0.25674
    20.30000   180.00000   180.00000     0.25653   180.00000   180.00000     0.25653
    20.40000   180.00000   180.00000     0.25633   180.00000   180.00000     0.25633
    20.50000   180.00000   180.00000     0.25612   180.00000   180.00000     0.25612
    20.60000   180.00000   180.00000     0.25592   180.00000   180.00000     0.25592
    20.70000   180.00000   360.00000     0.25571   180.00000   360.00000     0.25571
    20.80000   180.00000   180.00000     0.25551   180.00000   180.00000     0.25551
    20.90000   180.00000   360.00000     0.25530   180.00000   360.00000     0.25530
    21.00000   180.00000   360.00000     0.25510   180.00000   360.00000     0.25510
    21.10000   180.00000   360.00000     0.25489   180.00000   360.00000     0.25489
    21.20000   180.00000   180.00000     0.25468   180.00000   180.00000     0.25468
    21.30000   180.00000   360.00000     0.25448   180.00000   360.00000     0.25448
    21.40000   180.00000   360.00000     0.25427   180.00000   360.00000     0.25427
    21.50000   180.00000   360.00000     0.25407   180.00000   360.00000     0.25407
    21.60000   180.00000   180.00000     0.25386   180.00000   180.00000     0.25386
    21.70000   180.00000   180.00000     0.25366   180.00000   180.00000     0.25366
    21.80000   180.00000   360.00000     0.25345   180.00000   360.00000     0.25345
    21.90000   180.00000   360.00000     0.25325   180.00000   360.00000     0.25325
    22.00000   180.00000   180.00000     0.25304   180.00000   180.00000     0.25304
    22.10000   180.00000   180.00000     0.25283   180.00000   180.00000     0.25283
    22.20000   180.00000   180.00000     0.25263   180.00000   180.00000     0.25263
    22.30000   180.00000   180.00000     0.25242   180.00000   180.00000     0.25242
    22.40000   180.00000   360.00000     0.25222   180.00000   360.00000     0.25222
    22.50000   180.00000   180.00000     0.25201   180.00000   180.00000     0.25201
    22.60000   180.00000   360.00000     0.25181   180.00000   360.00000     0.25181
    22.70000   180.00000   180.00000     0.25160   180.00000   180.00000     0.25160
    22.80000   180.00000   180.00000     0.25140   180.00000   180.00000     0.25140
    22.90000   180.00000   180.00000     0.25119   180.00000   180.00000     0.25119
    23.00000   180.00000   180.00000     0.25098   180.00000   180.00000     0.25098
    23.10000   180.00000   360.00000     0.25078   180.00000   360.00000     0.25078
    23.20000   180.00000   360.00000     0.25057   180.00000   360.00000     0.25057
    23.30000   180.00000   360.00000     0.25037   180.00000   360.00000     0.25037
    23.40000   180.00000   180.00000     0.25016   180.00000   180.00000     0.25016
    23.50000   180.00000   180.00000     0.24996   180.00000   180.00000     0.24996
    23.60000   180.00000   360.00000     0.24975   180.00000   360.00000     0.24975
    23.70000   180.00000   360.00000     0.24955   180.00000   360.00000     0.24955
    23.80000   180.00000   180.00000     0.24934   180.00000   180.00000     0.24934
    23.90000   180.00000   180.00000     0.24914   180.00000   180.00000     0.24914
    24.00000   180.00000   180.00000     0.24893   180.00000   180.00000     0.24893
    24.10000   180.00000   180.00000     0.24872   180.00000   180.00000     0.24872
    24.20000   180.00000   360.00000     0.24852   180.00000   360.00000     0.24852
    24.30000   180.00000   360.00000     0.24831   180.00000   360.00000     0.24831
    24.40000   180.00000   360.00000     0.24811   180.00000   360.00000     0.24811
    24.50000   180.00000   180.00000     0.24790   180.00000   180.00000     0.24790
    24.60000   180.00000   180.00000     0.24770   180.00000   180.00000     0.24770
    24.70000   180.00000   180.00000     0.24749   180.00000   180.00000     0.24749
    24.80000   180.00000   180.00000     0.24729   180.00000   180.00000     0.24729
    24.90000   180.00000   360.00000     0.24708   180.00000   360.00000     0.24708
    25.00000   180.00000   360.00000     0.24687   180.00000   360.00000     0.24687
    25.10000   180.00000   180.00000     0.24667   180.00000   180.00000     0.24667
    25.20000   180.00000   180.00000     0.24646   180.00000   180.00000     0.24646
    25.30000   180.00000   180.00000     0.24626   180.00000   180.00000     0.24626
    25.40000   180.00000   360.00000     0.24605   180.00000   360.00000     0.24605
    25.50000   180.00000   180.00000     0.24585   180.00000   180.00000     0.24585
    25.60000   180.00000   180.00000     0.24564   180.00000   180.00000     0.24564
    25.70000   180.00000   360.00000     0.24544   180.00000   360.00000     0.24544
    25.80000   180.00000   360.00000     0.24523   180.00000   360.00000     0.24523
    25.90000   180.00000   180.00000     0.24503   180.00000   180.00000     0.24503
    26.00000   180.00000   360.00000     0.24482   180.00000   360.00000     0.24482
    26.10000   180.00000   180.00000     0.24461   180.00000   180.00000     0.24461
    26.20000   180.00000   360.00000     0.24441   180.00000   360.00000     0.24441
    26.30000   180.00000   180.00000     0.24420   180.00000   180.00000     0.24420
    26.40000   180.00000   180.00000     0.24400   180.00000   180.00000     0.24400
    26.50000   180.00000   360.00000     0.24379   180.00000   360.00000     0.24379
    26.60000   180.00000   360.00000     0.24359   180.00000   360.00000     0.24359
    26.70000   180.00000   360.00000     0.24338   180.00000   360.00000     0.24338
    26.80000   180.00000   360.00000     0.24318   180.00000   360.00000     0.24318
    26.90000   180.00000   180.00000     0.24297   180.00000   180.00000     0.24297
    27.00000   180.00000   180.00000     0.24277   180.00000   180.00000     0.24277
    27.10000   180.00000   360.00000     0.24256   180.00000   360.00000     0.24256
    27.20000   180.00000   180.00000     0.24236   180.00000   180.00000     0.24236
    27.30000   180.00000   180.00000     0.24215   180.00000   180.00000     0.24215
    27.40000   180.00000   180.00000     0.24194   180.00000   180.00000     0.24194
    27.50000   180.00000   180.00000     0.24174   180.00000   180.00000     0.24174
    27.60000   180.00000   360.00000     0.24153   180.00000   360.00000     0.24153
    27.70000   180.00000   180.00000     0.24133   180.00000   180.00000     0.24133
    27.80000   180.00000   360.00000     0.24112   180.00000   360.00000     0.24112
    27.90000   180.00000   180.00000     0.24092   180.00000   180.00000     0.24092
    28.00000   180.00000   180.00000     0.24071   180.00000   180.00000     0.24071
    28.10000   180.00000   360.00000     0.24051   180.00000   360.00000     0.24051
    28.20000   180.00000   180.00000     0.24030   180.00000   180.00000     0.24030
    28.30000   180.00000   360.00000     0.24010   180.00000   360.00000     0.24010
    28.40000   180.00000   360.00000     0.23989   180.00000   360.00000     0.23989
    28.50000   180.00000   180.00000     0.23969   180.00000   180.00000     0.23969
    28.60000   180.00000   180.00000     0.23948   180.00000   180.00000     0.23948
    28.70000   180.00000   180.00000     0.23927   180.00000   180.00000     0.23927
    28.80000   180.00000   360.00000     0.23907   180.00000   360.00000     0.23907
    28.90000   180.00000   180.00000     0.23886   180.00000   180.00000     0.23886
    29.00000   180.00000   360.00000     0.23866   180.00000   360.00000     0.23866
    29.10000   180.00000   360.00000     0.23845   180.00000   360.00000     0.23845
    29.20000   180.00000   180.00000     0.23825   180.00000   180.00000     0.23825
    29.30000   180.00000   180.00000     0.23804   180.00000   180.00000     0.23804
    29.40000   180.00000   180.00000     0.23784   180.00000   180.00000     0.23784
    29.50000   180.00000   360.00000     0.23763   180.00000   360.00000     0.23763
    29.60000   180.00000   180.00000     0.23743   180.00000   180.00000     0.23743
    29.70000   180.00000   360.00000     0.23722   180.00000   360.00000     0.23722
    29.80000   180.00000   360.00000     0.23702   180.00000   360.00000     0.23702
    29.90000   180.00000   360.00000     0.23681   180.00000   360.00000     0.23681
    30.00000   180.00000   360.00000     0.23660   180.00000   360.00000     0.23660
    30.10000   180.00000   360.00000     0.23640   180.00000   360.00000     0.23640
    30.20000   180.00000   180.00000     0.23619   180.00000   180.00000     0.23619
    30.30000   180.00000   360.00000     0.23599   180.00000   360.00000     0.23599
    30.40000   180.00000   180.00000     0.23578   180.00000   180.00000     0.23578
    30.50000   180.00000   180.00000     0.23558   180.00000   180.00000     0.23558
    30.60000   180.00000   360.00000     0.23537   180.00000   360.00000     0.23537
    30.70000   180.00000   360.00000     0.23517   180.00000   360.00000     0.23517
    30.80000   180.00000   360.00000     0.23496   180.00000   360.00000     0.23496
    30.90000   180.00000   180.00000     0.23476   180.00000   180.00000     0.23476
    31.00000   180.00000   180.00000     0.23455   180.00000   180.00000     0.23455
    31.10000   180.00000   180.00000     0.23435   180.00000   180.00000     0.23435
    31.20000   180.00000   360.00000     0.23414   180.00000   360.00000     0.23414
    31.30000   180.00000   360.00000     0.23394   180.00000   360.00000     0.23394
    31.40000   180.00000   180.00000     0.23373   180.00000   180.00000     0.23373
    31.50000   180.00000   180.00000     0.23352   180.00000   180.00000     0.23352
    31.60000   180.00000   180.00000     0.23332   180.00000   180.00000     0.23332
    31.70000   180.00000   180.00000     0.23311   180.00000   180.00000     0.23311
    31.80000   180.00000   180.00000     0.23291   180.00000   180.00000     0.23291
    31.90000   180.00000   180.00000     0.23270   180.00000   180.00000     0.23270
    32.00000   180.00000   360.00000     0.23250   180.00000   360.00000     0.23250
    32.10000   180.00000   360.00000     0.23229   180.00000   360.00000     0.23229
    32.20000   180.00000   180.00000     0.23209   180.00000   180.00000     0.23209
    32.30000   180.00000   180.00000     0.23188   180.00000   180.00000     0.23188
    32.40000   180.00000   180.00000     0.23168   180.00000   180.00000     0.23168
    32.50000   180.00000   360.00000     0.23147   180.00000   360.00000     0.23147
    32.60000   180.00000   180.00000     0.23127   180.00000   180.00000     0.23127
    32.70000   180.00000   180.00000     0.23106   180.00000   180.00000     0.23106
    32.80000   180.00000   180.00000     0.23086   180.00000   180.00000     0.23086
    32.90000   180.00000   360.00000     0.23065   180.00000   360.00000     0.23065
    33.00000   180.00000   360.00000     0.23045   180.00000   360.00000     0.23045
    33.10000   180.00000   180.00000     0.23024   180.00000   180.00000     0.23024
    33.20000   180.00000   180.00000     0.23003   180.00000   180.00000     0.23003
    33.30000   180.00000   180.00000     0.22983   180.00000   180.00000     0.22983
    33.40000   180.00000   360.00000     0.22962   180.00000   360.00000     0.22962
    33.50000   180.00000   360.00000     0.22942   180.00000   360.00000     0.22942
    33.60000   180.00000   360.00000     0.22921   180.00000   360.00000     0.22921
    33.70000   180.00000   360.00000     0.22901   180.00000   360.00000     0.22901
    33.80000   180.00000   180.00000     0.22880   180.00000   180.00000     0.22880
    33.90000   180.00000   360.00000     0.22860   180.00000   360.00000     0.22860
    34.00000   180.00000   180.00000     0.22839   180.00000   180.00000     0.22839
    34.10000   180.00000   180.00000     0.22819   180.00000   180.00000     0.22819
    34.20000   180.00000   180.00000     0.22798   180.00000   180.00000     0.22798
    34.30000   180.00000   180.00000     0.22778   180.00000   180.00000     0.22778
    34.40000   180.00000   360.00000     0.22757   180.00000   360.00000     0.22757
    34.50000   180.00000   360.00000     0.22737   180.00000   360.00000     0.22737
    34.60000   180.00000   180.00000     0.22716   180.00000   180.00000     0.22716
    34.70000   180.00000   180.00000     0.22696   180.00000   180.00000     0.22696
    34.80000   180.00000   180.00000     0.22675   180.00000   180.00000     0.22675
    34.90000   180.00000   360.00000     0.22655   180.00000   360.00000     0.22655
    35.00000   180.00000   360.00000     0.22634   180.00000   360.00000     0.22634
    35.10000   180.00000   180.00000     0.22613   180.00000   180.00000     0.22613
    35.20000   180.00000   360.00000     0.22593   180.00000   360.00000     0.22593
    35.30000   180.00000   360.00000     0.22572   180.00000   360.00000     0.22572
    35.40000   180.00000   180.00000     0.22552   180.00000   180.00000     0.22552
    35.50000   180.00000   360.00000     0.22531   180.00000   360.00000     0.22531
    35.60000   180.00000   360.00000     0.22511   180.00000   360.00000     0.22511
    35.70000   180.00000   360.00000     0.22490   180.00000   360.00000     0.22490
    35.80000   180.00000   180.00000     0.22470   180.00000   180.00000     0.22470
    35.90000   180.00000   360.00000     0.22449   180.00000   360.00000     0.22449
    36.00000   180.00000   180.00000     0.22429   180.00000   180.00000     0.22429
    36.10000   180.00000   360.00000     0.22408   180.00000   360.00000     0.22408
    36.20000   180.00000   180.00000     0.22388   180.00000   180.00000     0.22388
    36.30000   180.00000   180.00000     0.22367   180.00000   180.00000     0.22367
    36.40000   180.00000   180.00000     0.22347   180.00000   180.00000     0.22347
    36.50000   180.00000   180.00000     0.22326   180.00000   180.00000     0.22326
    36.60000   180.00000   180.00000     0.22306   180.00000   180.00000     0.22306
    36.70000   180.00000   360.00000     0.22285   180.00000   360.00000     0.22285
    36.80000   180.00000   180.00000     0.22265   180.00000   180.00000     0.22265
    36.90000   180.00000   360.00000     0.22244   180.00000   360.00000     0.22244
    37.00000   180.00000   360.00000     0.22224   180.00000   360.00000     0.22224
    37.10000   180.00000   360.00000     0.22203   180.00000   360.00000     0.22203
    37.20000   180.00000   180.00000     0.22183   180.00000   180.00000     0.22183
    37.30000   180.00000   180.00000     0.22162   180.00000   180.00000     0.22162
    37.40000   180.00000   180.00000     0.22141   180.00000   180.00000     0.22141
    37.50000   180.00000   360.00000     0.22121   180.00000   360.00000     0.22121
    37.60000   180.00000   360.00000     0.22100   180.00000   360.00000     0.22100
    37.70000   180.00000   180.00000     0.22080   180.00000   180.00000     0.22080
    37.80000   180.00000   180.00000     0.22059   180.00000   180.00000     0.22059
    37.90000   180.00000   360.00000     0.22039   180.00000   360.00000     0.22039
    38.00000   180.00000   360.00000     0.22018   180.00000   360.00000     0.22018
    38.10000   180.00000   180.00000     0.21998   180.00000   180.00000     0.21998
    38.20000   180.00000   360.00000     0.21977   180.00000   360.00000     0.21977
    38.30000   180.00000   180.00000     0.21957   180.00000   180.00000     0.21957
    38.40000   180.00000   360.00000     0.21936   180.00000   360.00000     0.21936
    38.50000   180.00000   180.00000     0.21916   180.00000   180.00000     0.21916
    38.60000   180.00000   180.00000     0.21895   180.00000   180.00000     0.21895
    38.70000   180.00000   360.00000     0.21875   180.00000   360.00000     0.21875
    38.80000   180.00000   360.00000     0.21854   180.00000   360.00000     0.21854
    38.90000   180.00000   360.00000     0.21834   180.00000   360.00000     0.21834
    39.00000   180.00000   180.00000     0.21813   180.00000   180.00000     0.21813
    39.10000   180.00000   180.00000     0.21793   180.00000   180.00000     0.21793
    39.20000   180.00000   180.00000     0.21772   180.00000   180.00000     0.21772
    39.30000   180.00000   180.00000     0.21752   180.00000   180.00000     0.21752
    39.40000   180.00000   360.00000     0.21731   180.00000   360.00000     0.21731
    39.50000   180.00000   360.00000     0.21711   180.00000   360.00000     0.21711
    39.60000   180.00000   180.00000     0.21690   180.00000   180.00000     0.21690
    39.70000   180.00000   180.00000     0.21670   180.00000   180.00000     0.21670
    39.80000   180.00000   360.00000     0.21649   180.00000   360.00000     0.21649
    39.90000   180.00000   360.00000     0.21629   180.00000   360.00000     0.21629
    40.00000   180.00000   360.00000     0.21608   180.00000   360.00000     0.21608
