 # applied field (T), theta (degree), phi (degree), abs [muB/unitcell], abs [T]
       0.00000000       0.00000000       0.00000000      53.73151304       1.84887133
       0.10000000       0.39839099      45.00000000      53.73151521       1.84887141
       0.20000000       0.79678301      45.00000000      53.73152171       1.84887163
       0.30000000       1.13834844      45.00000000      53.73153116       1.84887195
       0.40000000       1.53674507      45.00000000      53.73154587       1.84887246
       0.50000000       1.93514566      45.00000000      53.73156494       1.84887312
       0.60000000       2.33355122      45.00000000      53.73158839       1.84887392
       0.70000000       2.67513137      45.00000000      53.73161300       1.84887477
       0.80000000       3.07354886      45.00000000      53.73164478       1.84887586
       0.90000000       3.47197425      45.00000000      53.73168100       1.84887711
       1.00000000       3.87040855      45.00000000      53.73172169       1.84887851
       1.10000000       4.26885278      45.00000000      53.73176689       1.84888007
       1.20000000       4.66730795      45.00000000      53.73181664       1.84888178
       1.30000000       5.00893529      45.00000000      53.73186483       1.84888344
       1.40000000       5.40741346      45.00000000      53.73192327       1.84888545
       1.50000000       5.80590547      45.00000000      53.73198639       1.84888762
       1.60000000       6.20441232      45.00000000      53.73205422       1.84888995
       1.70000000       6.60293503      45.00000000      53.73212683       1.84889245
       1.80000000       7.00147459      45.00000000      53.73220426       1.84889512
       1.90000000       7.40003200      45.00000000      53.73228658       1.84889795
       2.00000000       7.79860826      45.00000000      53.73237385       1.84890095
       2.10000000       8.19720437      45.00000000      53.73246613       1.84890413
       2.20000000       8.59582131      45.00000000      53.73256348       1.84890748
       2.30000000       8.99446007      45.00000000      53.73266597       1.84891100
       2.40000000       9.39312163      45.00000000      53.73277367       1.84891471
       2.50000000       9.79180696      45.00000000      53.73288666       1.84891860
       2.60000000      10.19051704      45.00000000      53.73300499       1.84892267
       2.70000000      10.58925284      45.00000000      53.73312875       1.84892693
       2.80000000      10.98801531      45.00000000      53.73325802       1.84893137
       2.90000000      11.44369341      45.00000000      53.73340836       1.84893655
       3.00000000      11.84251630      45.00000000      53.73354953       1.84894141
       3.10000000      12.24136884      45.00000000      53.73369643       1.84894646
       3.20000000      12.69715366      45.00000000      53.73386680       1.84895232
       3.30000000      13.09607295      45.00000000      53.73402613       1.84895780
       3.40000000      13.49502481      45.00000000      53.73419142       1.84896349
       3.50000000      13.95092685      45.00000000      53.73438270       1.84897007
       3.60000000      14.34995162      45.00000000      53.73456093       1.84897621
       3.70000000      14.80593948      45.00000000      53.73476691       1.84898329
       3.80000000      15.26197503      45.00000000      53.73498081       1.84899066
       3.90000000      15.66111956      45.00000000      53.73517945       1.84899749
       4.00000000      16.11724800      45.00000000      53.73540863       1.84900538
       4.10000000      16.57342785      45.00000000      53.73564604       1.84901355
       4.20000000      17.02966035      45.00000000      53.73589177       1.84902200
       4.30000000      17.48594675      45.00000000      53.73614591       1.84903075
       4.40000000      17.94228824      45.00000000      53.73640854       1.84903978
       4.50000000      18.39868601      45.00000000      53.73667975       1.84904911
       4.60000000      18.85514121      45.00000000      53.73695961       1.84905874
       4.70000000      19.36865079      45.00000000      53.73727905       1.84906974
       4.80000000      19.82523187      45.00000000      53.73757737       1.84908000
       4.90000000      20.33888603      45.00000000      53.73791750       1.84909170
       5.00000000      20.79559786      45.00000000      53.73823450       1.84910261
       5.10000000      21.30940193      45.00000000      53.73859552       1.84911503
       5.20000000      21.82328746      45.00000000      53.73896759       1.84912784
       5.30000000      22.33725579      45.00000000      53.73935072       1.84914102
       5.40000000      22.85130820      45.00000000      53.73974491       1.84915458
       5.50000000      23.42251399      45.00000000      53.74018993       1.84916990
       5.60000000      23.93674800      45.00000000      53.74060727       1.84918426
       5.70000000      24.50815861      45.00000000      53.74107770       1.84920045
       5.80000000      25.07967919      45.00000000      53.74156130       1.84921709
       5.90000000      25.65131103      45.00000000      53.74205792       1.84923417
       6.00000000      26.28017936      45.00000000      53.74261334       1.84925329
       6.10000000      26.85204874      45.00000000      53.74313660       1.84927129
       6.20000000      27.48118111      45.00000000      53.74372059       1.84929139
       6.30000000      28.16761610      45.00000000      53.74436872       1.84931369
       6.40000000      28.85421927      45.00000000      53.74503329       1.84933655
       6.50000000      29.54099151      45.00000000      53.74571364       1.84935997
       6.60000000      30.22793339      45.00000000      53.74640907       1.84938389
       6.70000000      31.02948844      45.00000000      53.74722815       1.84941208
       6.80000000      31.77403663      45.00000000      53.74800916       1.84943895
       6.90000000      32.63329434      45.00000000      53.74891838       1.84947024
       7.00000000      33.55009159      45.00000000      53.74990252       1.84950410
       7.10000000      34.52448255      45.00000000      53.75096224       1.84954057
       7.20000000      35.55652247      45.00000000      53.75209706       1.84957962
       7.30000000      36.70360497      45.00000000      53.75336574       1.84962327
       7.40000000      90.00000000      45.00000000      53.77536773       1.85038035
       7.50000000      90.00000000      45.00000000      53.77541176       1.85038186
       7.60000000      90.00000000      45.00000000      53.77545579       1.85038338
       7.70000000      90.00000000      45.00000000      53.77549982       1.85038489
       7.80000000      90.00000000      45.00000000      53.77554387       1.85038641
       7.90000000      90.00000000      45.00000000      53.77558791       1.85038792
       8.00000000      90.00000000      45.00000000      53.77563197       1.85038944
       8.10000000      90.00000000      45.00000000      53.77567603       1.85039095
       8.20000000      90.00000000      45.00000000      53.77572009       1.85039247
       8.30000000      90.00000000      45.00000000      53.77576416       1.85039399
       8.40000000      90.00000000      45.00000000      53.77580823       1.85039550
       8.50000000      90.00000000      45.00000000      53.77585231       1.85039702
       8.60000000      90.00000000      45.00000000      53.77589640       1.85039854
       8.70000000      90.00000000      45.00000000      53.77594049       1.85040005
       8.80000000      90.00000000      45.00000000      53.77598459       1.85040157
       8.90000000      90.00000000      45.00000000      53.77602869       1.85040309
       9.00000000      90.00000000      45.00000000      53.77607280       1.85040461
       9.10000000      90.00000000      45.00000000      53.77611691       1.85040613
       9.20000000      90.00000000      45.00000000      53.77616103       1.85040764
       9.30000000      90.00000000      45.00000000      53.77620515       1.85040916
       9.40000000      90.00000000      45.00000000      53.77624928       1.85041068
       9.50000000      90.00000000      45.00000000      53.77629342       1.85041220
       9.60000000      90.00000000      45.00000000      53.77633756       1.85041372
       9.70000000      90.00000000      45.00000000      53.77638170       1.85041524
       9.80000000      90.00000000      45.00000000      53.77642585       1.85041676
       9.90000000      90.00000000      45.00000000      53.77647001       1.85041828
      10.00000000      90.00000000      45.00000000      53.77651417       1.85041979
      10.10000000      90.00000000      45.00000000      53.77655834       1.85042131
      10.20000000      90.00000000      45.00000000      53.77660251       1.85042283
      10.30000000      90.00000000      45.00000000      53.77664669       1.85042435
      10.40000000      90.00000000      45.00000000      53.77669087       1.85042587
      10.50000000      90.00000000      45.00000000      53.77673506       1.85042740
      10.60000000      90.00000000      45.00000000      53.77677926       1.85042892
      10.70000000      90.00000000      45.00000000      53.77682346       1.85043044
      10.80000000      90.00000000      45.00000000      53.77686767       1.85043196
      10.90000000      90.00000000      45.00000000      53.77691188       1.85043348
      11.00000000      90.00000000      45.00000000      53.77695609       1.85043500
      11.10000000      90.00000000      45.00000000      53.77700032       1.85043652
      11.20000000      90.00000000      45.00000000      53.77704454       1.85043804
      11.30000000      90.00000000      45.00000000      53.77708878       1.85043957
      11.40000000      90.00000000      45.00000000      53.77713301       1.85044109
      11.50000000      90.00000000      45.00000000      53.77717726       1.85044261
      11.60000000      90.00000000      45.00000000      53.77722151       1.85044413
      11.70000000      90.00000000      45.00000000      53.77726576       1.85044566
      11.80000000      90.00000000      45.00000000      53.77731002       1.85044718
      11.90000000      90.00000000      45.00000000      53.77735429       1.85044870
      12.00000000      90.00000000      45.00000000      53.77739856       1.85045023
      12.10000000      90.00000000      45.00000000      53.77744284       1.85045175
      12.20000000      90.00000000      45.00000000      53.77748712       1.85045327
      12.30000000      90.00000000      45.00000000      53.77753141       1.85045480
      12.40000000      90.00000000      45.00000000      53.77757570       1.85045632
      12.50000000      90.00000000      45.00000000      53.77762000       1.85045785
      12.60000000      90.00000000      45.00000000      53.77766431       1.85045937
      12.70000000      90.00000000      45.00000000      53.77770862       1.85046089
      12.80000000      90.00000000      45.00000000      53.77775293       1.85046242
      12.90000000      90.00000000      45.00000000      53.77779725       1.85046394
      13.00000000      90.00000000      45.00000000      53.77784158       1.85046547
      13.10000000      90.00000000      45.00000000      53.77788591       1.85046700
      13.20000000      90.00000000      45.00000000      53.77793025       1.85046852
      13.30000000      90.00000000      45.00000000      53.77797459       1.85047005
      13.40000000      90.00000000      45.00000000      53.77801894       1.85047157
      13.50000000      90.00000000      45.00000000      53.77806329       1.85047310
      13.60000000      90.00000000      45.00000000      53.77810765       1.85047463
      13.70000000      90.00000000      45.00000000      53.77815202       1.85047615
      13.80000000      90.00000000      45.00000000      53.77819639       1.85047768
      13.90000000      90.00000000      45.00000000      53.77824076       1.85047921
      14.00000000      90.00000000      45.00000000      53.77828514       1.85048073
      14.10000000      90.00000000      45.00000000      53.77832953       1.85048226
      14.20000000      90.00000000      45.00000000      53.77837392       1.85048379
      14.30000000      90.00000000      45.00000000      53.77841832       1.85048532
      14.40000000      90.00000000      45.00000000      53.77846272       1.85048684
      14.50000000      90.00000000      45.00000000      53.77850713       1.85048837
      14.60000000      90.00000000      45.00000000      53.77855155       1.85048990
      14.70000000      90.00000000      45.00000000      53.77859597       1.85049143
      14.80000000      90.00000000      45.00000000      53.77864039       1.85049296
      14.90000000      90.00000000      45.00000000      53.77868482       1.85049449
      15.00000000      90.00000000      45.00000000      53.77872926       1.85049601
      15.10000000      90.00000000      45.00000000      53.77877370       1.85049754
      15.20000000      90.00000000      45.00000000      53.77881815       1.85049907
      15.30000000      90.00000000      45.00000000      53.77886260       1.85050060
      15.40000000      90.00000000      45.00000000      53.77890706       1.85050213
      15.50000000      90.00000000      45.00000000      53.77895152       1.85050366
      15.60000000      90.00000000      45.00000000      53.77899599       1.85050519
      15.70000000      90.00000000      45.00000000      53.77904047       1.85050672
      15.80000000      90.00000000      45.00000000      53.77908495       1.85050825
      15.90000000      90.00000000      45.00000000      53.77912943       1.85050978
      16.00000000      90.00000000      45.00000000      53.77917392       1.85051132
      16.10000000      90.00000000      45.00000000      53.77921842       1.85051285
      16.20000000      90.00000000      45.00000000      53.77926292       1.85051438
      16.30000000      90.00000000      45.00000000      53.77930743       1.85051591
      16.40000000      90.00000000      45.00000000      53.77935194       1.85051744
      16.50000000      90.00000000      45.00000000      53.77939646       1.85051897
      16.60000000      90.00000000      45.00000000      53.77944099       1.85052050
      16.70000000      90.00000000      45.00000000      53.77948552       1.85052204
      16.80000000      90.00000000      45.00000000      53.77953005       1.85052357
      16.90000000      90.00000000      45.00000000      53.77957459       1.85052510
      17.00000000      90.00000000      45.00000000      53.77961914       1.85052663
      17.10000000      90.00000000      45.00000000      53.77966369       1.85052817
      17.20000000      90.00000000      45.00000000      53.77970825       1.85052970
      17.30000000      90.00000000      45.00000000      53.77975281       1.85053123
      17.40000000      90.00000000      45.00000000      53.77979738       1.85053277
      17.50000000      90.00000000      45.00000000      53.77984196       1.85053430
      17.60000000      90.00000000      45.00000000      53.77988654       1.85053584
      17.70000000      90.00000000      45.00000000      53.77993112       1.85053737
      17.80000000      90.00000000      45.00000000      53.77997571       1.85053890
      17.90000000      90.00000000      45.00000000      53.78002031       1.85054044
      18.00000000      90.00000000      45.00000000      53.78006491       1.85054197
      18.10000000      90.00000000      45.00000000      53.78010952       1.85054351
      18.20000000      90.00000000      45.00000000      53.78015413       1.85054504
      18.30000000      90.00000000      45.00000000      53.78019875       1.85054658
      18.40000000      90.00000000      45.00000000      53.78024337       1.85054811
      18.50000000      90.00000000      45.00000000      53.78028800       1.85054965
      18.60000000      90.00000000      45.00000000      53.78033264       1.85055119
      18.70000000      90.00000000      45.00000000      53.78037728       1.85055272
      18.80000000      90.00000000      45.00000000      53.78042193       1.85055426
      18.90000000      90.00000000      45.00000000      53.78046658       1.85055579
      19.00000000      90.00000000      45.00000000      53.78051124       1.85055733
      19.10000000      90.00000000      45.00000000      53.78055590       1.85055887
      19.20000000      90.00000000      45.00000000      53.78060057       1.85056041
      19.30000000      90.00000000      45.00000000      53.78064524       1.85056194
      19.40000000      90.00000000      45.00000000      53.78068992       1.85056348
      19.50000000      90.00000000      45.00000000      53.78073461       1.85056502
      19.60000000      90.00000000      45.00000000      53.78077930       1.85056656
      19.70000000      90.00000000      45.00000000      53.78082399       1.85056809
      19.80000000      90.00000000      45.00000000      53.78086869       1.85056963
      19.90000000      90.00000000      45.00000000      53.78091340       1.85057117
      20.00000000      90.00000000      45.00000000      53.78095811       1.85057271
      20.10000000      90.00000000      45.00000000      53.78100283       1.85057425
      20.20000000      90.00000000      45.00000000      53.78104756       1.85057579
      20.30000000      90.00000000      45.00000000      53.78109229       1.85057732
      20.40000000      90.00000000      45.00000000      53.78113702       1.85057886
      20.50000000      90.00000000      45.00000000      53.78118176       1.85058040
      20.60000000      90.00000000      45.00000000      53.78122651       1.85058194
      20.70000000      90.00000000      45.00000000      53.78127126       1.85058348
      20.80000000      90.00000000      45.00000000      53.78131602       1.85058502
      20.90000000      90.00000000      45.00000000      53.78136078       1.85058656
      21.00000000      90.00000000      45.00000000      53.78140555       1.85058810
      21.10000000      90.00000000      45.00000000      53.78145032       1.85058964
      21.20000000      90.00000000      45.00000000      53.78149510       1.85059119
      21.30000000      90.00000000      45.00000000      53.78153989       1.85059273
      21.40000000      90.00000000      45.00000000      53.78158468       1.85059427
      21.50000000      90.00000000      45.00000000      53.78162947       1.85059581
      21.60000000      90.00000000      45.00000000      53.78167428       1.85059735
      21.70000000      90.00000000      45.00000000      53.78171908       1.85059889
      21.80000000      90.00000000      45.00000000      53.78176390       1.85060043
      21.90000000      90.00000000      45.00000000      53.78180872       1.85060198
      22.00000000      90.00000000      45.00000000      53.78185354       1.85060352
      22.10000000      90.00000000      45.00000000      53.78189837       1.85060506
      22.20000000      90.00000000      45.00000000      53.78194320       1.85060660
      22.30000000      90.00000000      45.00000000      53.78198805       1.85060815
      22.40000000      90.00000000      45.00000000      53.78203289       1.85060969
      22.50000000      90.00000000      45.00000000      53.78207774       1.85061123
      22.60000000      90.00000000      45.00000000      53.78212260       1.85061278
      22.70000000      90.00000000      45.00000000      53.78216746       1.85061432
      22.80000000      90.00000000      45.00000000      53.78221233       1.85061587
      22.90000000      90.00000000      45.00000000      53.78225721       1.85061741
      23.00000000      90.00000000      45.00000000      53.78230209       1.85061895
      23.10000000      90.00000000      45.00000000      53.78234697       1.85062050
      23.20000000      90.00000000      45.00000000      53.78239186       1.85062204
      23.30000000      90.00000000      45.00000000      53.78243676       1.85062359
      23.40000000      90.00000000      45.00000000      53.78248166       1.85062513
      23.50000000      90.00000000      45.00000000      53.78252657       1.85062668
      23.60000000      90.00000000      45.00000000      53.78257149       1.85062822
      23.70000000      90.00000000      45.00000000      53.78261640       1.85062977
      23.80000000      90.00000000      45.00000000      53.78266133       1.85063131
      23.90000000      90.00000000      45.00000000      53.78270626       1.85063286
      24.00000000      90.00000000      45.00000000      53.78275119       1.85063441
      24.10000000      90.00000000      45.00000000      53.78279614       1.85063595
      24.20000000      90.00000000      45.00000000      53.78284108       1.85063750
      24.30000000      90.00000000      45.00000000      53.78288604       1.85063905
      24.40000000      90.00000000      45.00000000      53.78293099       1.85064059
      24.50000000      90.00000000      45.00000000      53.78297596       1.85064214
      24.60000000      90.00000000      45.00000000      53.78302093       1.85064369
      24.70000000      90.00000000      45.00000000      53.78306590       1.85064524
      24.80000000      90.00000000      45.00000000      53.78311088       1.85064678
      24.90000000      90.00000000      45.00000000      53.78315587       1.85064833
      25.00000000      90.00000000      45.00000000      53.78320086       1.85064988
      25.10000000      90.00000000      45.00000000      53.78324586       1.85065143
      25.20000000      90.00000000      45.00000000      53.78329086       1.85065298
      25.30000000      90.00000000      45.00000000      53.78333587       1.85065453
      25.40000000      90.00000000      45.00000000      53.78338089       1.85065607
      25.50000000      90.00000000      45.00000000      53.78342590       1.85065762
      25.60000000      90.00000000      45.00000000      53.78347093       1.85065917
      25.70000000      90.00000000      45.00000000      53.78351596       1.85066072
      25.80000000      90.00000000      45.00000000      53.78356100       1.85066227
      25.90000000      90.00000000      45.00000000      53.78360604       1.85066382
      26.00000000      90.00000000      45.00000000      53.78365109       1.85066537
      26.10000000      90.00000000      45.00000000      53.78369614       1.85066692
      26.20000000      90.00000000      45.00000000      53.78374120       1.85066847
      26.30000000      90.00000000      45.00000000      53.78378627       1.85067002
      26.40000000      90.00000000      45.00000000      53.78383134       1.85067157
      26.50000000      90.00000000      45.00000000      53.78387641       1.85067313
      26.60000000      90.00000000      45.00000000      53.78392149       1.85067468
      26.70000000      90.00000000      45.00000000      53.78396658       1.85067623
      26.80000000      90.00000000      45.00000000      53.78401167       1.85067778
      26.90000000      90.00000000      45.00000000      53.78405677       1.85067933
      27.00000000      90.00000000      45.00000000      53.78410188       1.85068088
      27.10000000      90.00000000      45.00000000      53.78414699       1.85068244
      27.20000000      90.00000000      45.00000000      53.78419210       1.85068399
      27.30000000      90.00000000      45.00000000      53.78423722       1.85068554
      27.40000000      90.00000000      45.00000000      53.78428235       1.85068709
      27.50000000      90.00000000      45.00000000      53.78432748       1.85068865
      27.60000000      90.00000000      45.00000000      53.78437262       1.85069020
      27.70000000      90.00000000      45.00000000      53.78441776       1.85069175
      27.80000000      90.00000000      45.00000000      53.78446291       1.85069331
      27.90000000      90.00000000      45.00000000      53.78450807       1.85069486
      28.00000000      90.00000000      45.00000000      53.78455323       1.85069641
      28.10000000      90.00000000      45.00000000      53.78459839       1.85069797
      28.20000000      90.00000000      45.00000000      53.78464357       1.85069952
      28.30000000      90.00000000      45.00000000      53.78468874       1.85070108
      28.40000000      90.00000000      45.00000000      53.78473393       1.85070263
      28.50000000      90.00000000      45.00000000      53.78477911       1.85070419
      28.60000000      90.00000000      45.00000000      53.78482431       1.85070574
      28.70000000      90.00000000      45.00000000      53.78486951       1.85070730
      28.80000000      90.00000000      45.00000000      53.78491471       1.85070885
      28.90000000      90.00000000      45.00000000      53.78495993       1.85071041
      29.00000000      90.00000000      45.00000000      53.78500514       1.85071196
      29.10000000      90.00000000      45.00000000      53.78505037       1.85071352
      29.20000000      90.00000000      45.00000000      53.78509559       1.85071508
      29.30000000      90.00000000      45.00000000      53.78514083       1.85071663
      29.40000000      90.00000000      45.00000000      53.78518607       1.85071819
      29.50000000      90.00000000      45.00000000      53.78523131       1.85071975
      29.60000000      90.00000000      45.00000000      53.78527656       1.85072130
      29.70000000      90.00000000      45.00000000      53.78532182       1.85072286
      29.80000000      90.00000000      45.00000000      53.78536708       1.85072442
      29.90000000      90.00000000      45.00000000      53.78541235       1.85072598
      30.00000000      90.00000000      45.00000000      53.78545762       1.85072753
      30.10000000      90.00000000      45.00000000      53.78550290       1.85072909
      30.20000000      90.00000000      45.00000000      53.78554819       1.85073065
      30.30000000      90.00000000      45.00000000      53.78559348       1.85073221
      30.40000000      90.00000000      45.00000000      53.78563877       1.85073377
      30.50000000      90.00000000      45.00000000      53.78568407       1.85073533
      30.60000000      90.00000000      45.00000000      53.78572938       1.85073688
      30.70000000      90.00000000      45.00000000      53.78577469       1.85073844
      30.80000000      90.00000000      45.00000000      53.78582001       1.85074000
      30.90000000      90.00000000      45.00000000      53.78586534       1.85074156
      31.00000000      90.00000000      45.00000000      53.78591067       1.85074312
      31.10000000      90.00000000      45.00000000      53.78595600       1.85074468
      31.20000000      90.00000000      45.00000000      53.78600134       1.85074624
      31.30000000      90.00000000      45.00000000      53.78604669       1.85074780
      31.40000000      90.00000000      45.00000000      53.78609204       1.85074936
      31.50000000      90.00000000      45.00000000      53.78613740       1.85075092
      31.60000000      90.00000000      45.00000000      53.78618276       1.85075249
      31.70000000      90.00000000      45.00000000      53.78622813       1.85075405
      31.80000000      90.00000000      45.00000000      53.78627351       1.85075561
      31.90000000      90.00000000      45.00000000      53.78631889       1.85075717
      32.00000000      90.00000000      45.00000000      53.78636428       1.85075873
      32.10000000      90.00000000      45.00000000      53.78640967       1.85076029
      32.20000000      90.00000000      45.00000000      53.78645507       1.85076186
      32.30000000      90.00000000      45.00000000      53.78650047       1.85076342
      32.40000000      90.00000000      45.00000000      53.78654588       1.85076498
      32.50000000      90.00000000      45.00000000      53.78659129       1.85076654
      32.60000000      90.00000000      45.00000000      53.78663672       1.85076811
      32.70000000      90.00000000      45.00000000      53.78668214       1.85076967
      32.80000000      90.00000000      45.00000000      53.78672757       1.85077123
      32.90000000      90.00000000      45.00000000      53.78677301       1.85077280
      33.00000000      90.00000000      45.00000000      53.78681845       1.85077436
      33.10000000      90.00000000      45.00000000      53.78686390       1.85077592
      33.20000000      90.00000000      45.00000000      53.78690936       1.85077749
      33.30000000      90.00000000      45.00000000      53.78695482       1.85077905
      33.40000000      90.00000000      45.00000000      53.78700028       1.85078062
      33.50000000      90.00000000      45.00000000      53.78704576       1.85078218
      33.60000000      90.00000000      45.00000000      53.78709123       1.85078375
      33.70000000      90.00000000      45.00000000      53.78713672       1.85078531
      33.80000000      90.00000000      45.00000000      53.78718221       1.85078688
      33.90000000      90.00000000      45.00000000      53.78722770       1.85078844
      34.00000000      90.00000000      45.00000000      53.78727320       1.85079001
      34.10000000      90.00000000      45.00000000      53.78731871       1.85079157
      34.20000000      90.00000000      45.00000000      53.78736422       1.85079314
      34.30000000      90.00000000      45.00000000      53.78740974       1.85079470
      34.40000000      90.00000000      45.00000000      53.78745526       1.85079627
      34.50000000      90.00000000      45.00000000      53.78750079       1.85079784
      34.60000000      90.00000000      45.00000000      53.78754632       1.85079940
      34.70000000      90.00000000      45.00000000      53.78759186       1.85080097
      34.80000000      90.00000000      45.00000000      53.78763741       1.85080254
      34.90000000      90.00000000      45.00000000      53.78768296       1.85080411
      35.00000000      90.00000000      45.00000000      53.78772852       1.85080567
      35.10000000      90.00000000      45.00000000      53.78777408       1.85080724
      35.20000000      90.00000000      45.00000000      53.78781965       1.85080881
      35.30000000      90.00000000      45.00000000      53.78786522       1.85081038
      35.40000000      90.00000000      45.00000000      53.78791080       1.85081195
      35.50000000      90.00000000      45.00000000      53.78795639       1.85081351
      35.60000000      90.00000000      45.00000000      53.78800198       1.85081508
      35.70000000      90.00000000      45.00000000      53.78804758       1.85081665
      35.80000000      90.00000000      45.00000000      53.78809318       1.85081822
      35.90000000      90.00000000      45.00000000      53.78813879       1.85081979
      36.00000000      90.00000000      45.00000000      53.78818440       1.85082136
      36.10000000      90.00000000      45.00000000      53.78823002       1.85082293
      36.20000000      90.00000000      45.00000000      53.78827565       1.85082450
      36.30000000      90.00000000      45.00000000      53.78832128       1.85082607
      36.40000000      90.00000000      45.00000000      53.78836692       1.85082764
      36.50000000      90.00000000      45.00000000      53.78841256       1.85082921
      36.60000000      90.00000000      45.00000000      53.78845821       1.85083078
      36.70000000      90.00000000      45.00000000      53.78850386       1.85083235
      36.80000000      90.00000000      45.00000000      53.78854952       1.85083392
      36.90000000      90.00000000      45.00000000      53.78859519       1.85083550
      37.00000000      90.00000000      45.00000000      53.78864086       1.85083707
      37.10000000      90.00000000      45.00000000      53.78868654       1.85083864
      37.20000000      90.00000000      45.00000000      53.78873222       1.85084021
      37.30000000      90.00000000      45.00000000      53.78877791       1.85084178
      37.40000000      90.00000000      45.00000000      53.78882360       1.85084336
      37.50000000      90.00000000      45.00000000      53.78886930       1.85084493
      37.60000000      90.00000000      45.00000000      53.78891501       1.85084650
      37.70000000      90.00000000      45.00000000      53.78896072       1.85084807
      37.80000000      90.00000000      45.00000000      53.78900644       1.85084965
      37.90000000      90.00000000      45.00000000      53.78905216       1.85085122
      38.00000000      90.00000000      45.00000000      53.78909789       1.85085279
      38.10000000      90.00000000      45.00000000      53.78914362       1.85085437
      38.20000000      90.00000000      45.00000000      53.78918937       1.85085594
      38.30000000      90.00000000      45.00000000      53.78923511       1.85085752
      38.40000000      90.00000000      45.00000000      53.78928086       1.85085909
      38.50000000      90.00000000      45.00000000      53.78932662       1.85086066
      38.60000000      90.00000000      45.00000000      53.78937238       1.85086224
      38.70000000      90.00000000      45.00000000      53.78941815       1.85086381
      38.80000000      90.00000000      45.00000000      53.78946393       1.85086539
      38.90000000      90.00000000      45.00000000      53.78950971       1.85086696
      39.00000000      90.00000000      45.00000000      53.78955549       1.85086854
      39.10000000      90.00000000      45.00000000      53.78960129       1.85087011
      39.20000000      90.00000000      45.00000000      53.78964708       1.85087169
      39.30000000      90.00000000      45.00000000      53.78969289       1.85087327
      39.40000000      90.00000000      45.00000000      53.78973870       1.85087484
      39.50000000      90.00000000      45.00000000      53.78978451       1.85087642
      39.60000000      90.00000000      45.00000000      53.78983033       1.85087800
      39.70000000      90.00000000      45.00000000      53.78987616       1.85087957
      39.80000000      90.00000000      45.00000000      53.78992199       1.85088115
      39.90000000      90.00000000      45.00000000      53.78996783       1.85088273
      40.00000000      90.00000000      45.00000000      53.79001367       1.85088430
