 # applied field (T), theta (degree), phi (degree), abs for RE 3-4
     0.00000     0.19158   135.00000     3.46358     0.19158    45.00000     3.46358
     0.10000     1.05296     5.68591     3.46616     1.33097     7.27849     3.46347
     0.20000     2.23308     1.88183     3.46858     2.51351     4.61127     3.46321
     0.30000     3.41733     0.71168     3.47083     3.69859     3.65576     3.46280
     0.40000     4.60358     0.14467     3.47288     4.88497     3.16727     3.46225
     0.50000     5.79157   359.81028     3.47473     6.07254     2.87233     3.46156
     0.60000     6.98136   359.58967     3.47637     7.26139     2.67613     3.46073
     0.70000     8.22711   359.42700     3.47783     8.50565     2.53174     3.45973
     0.80000     9.42089   359.31127     3.47900     9.69755     2.43003     3.45865
     0.90000    10.67104   359.21745     3.47995    10.94534     2.34901     3.45738
     1.00000    11.92362   359.14273     3.48062    12.19519     2.28605     3.45599
     1.10000    13.17873   359.08160     3.48100    13.44727     2.23611     3.45448
     1.20000    14.49107   359.02843     3.48108    14.75620     2.19432     3.45278
     1.30000    15.80636   358.98342     3.48083    16.06789     2.16051     3.45097
     1.40000    17.12467   358.94465     3.48024    17.38248     2.13285     3.44905
     1.50000    18.50109   358.90947     3.47925    18.75496     2.10918     3.44695
     1.60000    19.93611   358.87733     3.47781    20.18586     2.08894     3.44466
     1.70000    21.37494   358.84883     3.47596    21.62059     2.07226     3.44229
     1.80000    22.81767   358.82331     3.47370    23.05927     2.05844     3.43983
     1.90000    24.37562   358.79855     3.47079    24.61288     2.04611     3.43711
     2.00000    25.93830   358.77615     3.46741    26.17124     2.03592     3.43432
     2.10000    27.56180   358.75502     3.46341    27.79018     2.02716     3.43139
     2.20000    29.24682   358.73505     3.45876    29.47027     2.01963     3.42830
     2.30000    31.05048   358.71551     3.45326    31.26822     2.01294     3.42499
     2.40000    32.86105   358.69752     3.44724    33.07235     2.00730     3.42167
     2.50000    34.84929   358.67929     3.44012    35.05232     2.00204     3.41804
     2.60000    36.96059   358.66136     3.43205    37.15298     1.99719     3.41423
     2.70000    39.13946   358.64406     3.42331    39.31831     1.99267     3.41038
     2.80000    41.56022   358.62585     3.41326    41.72027     1.98794     3.40622
     2.90000    44.22695   358.60655     3.40201    44.36098     1.98276     3.40180
     3.00000    47.14391   358.58576     3.38984    47.24242     1.97679     3.39719
     3.10000    50.43283   358.56202     3.37669    50.48218     1.96935     3.39229
     3.20000    54.27711   358.53307     3.36274    54.25760     1.95927     3.38697
     3.30000    58.92243   358.49557     3.34876    58.80692     1.94467     3.38112
     3.40000    65.03364   358.44216     3.33637    64.78291     1.92080     3.37433
     3.50000    74.41046   358.35728     3.33184    73.97379     1.87301     3.36566
     3.60000    90.28402   358.23717     3.35575    89.71598     1.76283     3.35575
     3.70000    90.28401   358.23724     3.35587    89.71599     1.76276     3.35587
     3.80000    90.28400   358.23730     3.35598    89.71600     1.76270     3.35598
     3.90000    90.28400   358.23737     3.35610    89.71600     1.76263     3.35610
     4.00000    90.28399   358.23744     3.35621    89.71601     1.76256     3.35621
     4.10000    90.28399   358.23750     3.35633    89.71601     1.76250     3.35633
     4.20000    90.28398   358.23757     3.35644    89.71602     1.76243     3.35644
     4.30000    90.28398   358.23763     3.35656    89.71602     1.76237     3.35656
     4.40000    90.28397   358.23770     3.35667    89.71603     1.76230     3.35667
     4.50000    90.28396   358.23777     3.35679    89.71604     1.76223     3.35679
     4.60000    90.28396   358.23783     3.35690    89.71604     1.76217     3.35690
     4.70000    90.28395   358.23790     3.35702    89.71605     1.76210     3.35702
     4.80000    90.28395   358.23797     3.35713    89.71605     1.76203     3.35713
     4.90000    90.28394   358.23803     3.35725    89.71606     1.76197     3.35725
     5.00000    90.28393   358.23810     3.35736    89.71607     1.76190     3.35736
     5.10000    90.28393   358.23816     3.35748    89.71607     1.76184     3.35748
     5.20000    90.28392   358.23823     3.35759    89.71608     1.76177     3.35759
     5.30000    90.28392   358.23830     3.35771    89.71608     1.76170     3.35771
     5.40000    90.28391   358.23836     3.35782    89.71609     1.76164     3.35782
     5.50000    90.28390   358.23843     3.35794    89.71610     1.76157     3.35794
     5.60000    90.28390   358.23849     3.35805    89.71610     1.76151     3.35805
     5.70000    90.28389   358.23856     3.35817    89.71611     1.76144     3.35817
     5.80000    90.28389   358.23863     3.35828    89.71611     1.76137     3.35828
     5.90000    90.28388   358.23869     3.35840    89.71612     1.76131     3.35840
     6.00000    90.28388   358.23876     3.35851    89.71612     1.76124     3.35851
     6.10000    90.28387   358.23882     3.35863    89.71613     1.76118     3.35863
     6.20000    90.28386   358.23889     3.35874    89.71614     1.76111     3.35874
     6.30000    90.28386   358.23896     3.35886    89.71614     1.76104     3.35886
     6.40000    90.28385   358.23902     3.35897    89.71615     1.76098     3.35897
     6.50000    90.28385   358.23909     3.35909    89.71615     1.76091     3.35909
     6.60000    90.28384   358.23915     3.35920    89.71616     1.76085     3.35920
     6.70000    90.28383   358.23922     3.35931    89.71617     1.76078     3.35931
     6.80000    90.28383   358.23928     3.35943    89.71617     1.76072     3.35943
     6.90000    90.28382   358.23935     3.35954    89.71618     1.76065     3.35954
     7.00000    90.28382   358.23942     3.35966    89.71618     1.76058     3.35966
     7.10000    90.28381   358.23948     3.35977    89.71619     1.76052     3.35977
     7.20000    90.28380   358.23955     3.35989    89.71620     1.76045     3.35989
     7.30000    90.28380   358.23961     3.36000    89.71620     1.76039     3.36000
     7.40000    90.28379   358.23968     3.36012    89.71621     1.76032     3.36012
     7.50000    90.28379   358.23975     3.36023    89.71621     1.76025     3.36023
     7.60000    90.28378   358.23981     3.36034    89.71622     1.76019     3.36034
     7.70000    90.28377   358.23988     3.36046    89.71623     1.76012     3.36046
     7.80000    90.28377   358.23994     3.36057    89.71623     1.76006     3.36057
     7.90000    90.28376   358.24001     3.36069    89.71624     1.75999     3.36069
     8.00000    90.28376   358.24007     3.36080    89.71624     1.75993     3.36080
     8.10000    90.28375   358.24014     3.36092    89.71625     1.75986     3.36092
     8.20000    90.28375   358.24021     3.36103    89.71625     1.75979     3.36103
     8.30000    90.28374   358.24027     3.36114    89.71626     1.75973     3.36114
     8.40000    90.28373   358.24034     3.36126    89.71627     1.75966     3.36126
     8.50000    90.28373   358.24040     3.36137    89.71627     1.75960     3.36137
     8.60000    90.28372   358.24047     3.36149    89.71628     1.75953     3.36149
     8.70000    90.28372   358.24053     3.36160    89.71628     1.75947     3.36160
     8.80000    90.28371   358.24060     3.36171    89.71629     1.75940     3.36171
     8.90000    90.28370   358.24067     3.36183    89.71630     1.75933     3.36183
     9.00000    90.28370   358.24073     3.36194    89.71630     1.75927     3.36194
     9.10000    90.28369   358.24080     3.36205    89.71631     1.75920     3.36205
     9.20000    90.28369   358.24086     3.36217    89.71631     1.75914     3.36217
     9.30000    90.28368   358.24093     3.36228    89.71632     1.75907     3.36228
     9.40000    90.28367   358.24099     3.36240    89.71633     1.75901     3.36240
     9.50000    90.28367   358.24106     3.36251    89.71633     1.75894     3.36251
     9.60000    90.28366   358.24112     3.36262    89.71634     1.75888     3.36262
     9.70000    90.28366   358.24119     3.36274    89.71634     1.75881     3.36274
     9.80000    90.28365   358.24126     3.36285    89.71635     1.75874     3.36285
     9.90000    90.28365   358.24132     3.36296    89.71635     1.75868     3.36296
    10.00000    90.28364   358.24139     3.36308    89.71636     1.75861     3.36308
    10.10000    90.28363   358.24145     3.36319    89.71637     1.75855     3.36319
    10.20000    90.28363   358.24152     3.36330    89.71637     1.75848     3.36330
    10.30000    90.28362   358.24158     3.36342    89.71638     1.75842     3.36342
    10.40000    90.28362   358.24165     3.36353    89.71638     1.75835     3.36353
    10.50000    90.28361   358.24171     3.36364    89.71639     1.75829     3.36364
    10.60000    90.28360   358.24178     3.36376    89.71640     1.75822     3.36376
    10.70000    90.28360   358.24184     3.36387    89.71640     1.75816     3.36387
    10.80000    90.28359   358.24191     3.36398    89.71641     1.75809     3.36398
    10.90000    90.28359   358.24198     3.36410    89.71641     1.75802     3.36410
    11.00000    90.28358   358.24204     3.36421    89.71642     1.75796     3.36421
    11.10000    90.28357   358.24211     3.36432    89.71643     1.75789     3.36432
    11.20000    90.28357   358.24217     3.36444    89.71643     1.75783     3.36444
    11.30000    90.28356   358.24224     3.36455    89.71644     1.75776     3.36455
    11.40000    90.28356   358.24230     3.36466    89.71644     1.75770     3.36466
    11.50000    90.28355   358.24237     3.36478    89.71645     1.75763     3.36478
    11.60000    90.28355   358.24243     3.36489    89.71645     1.75757     3.36489
    11.70000    90.28354   358.24250     3.36500    89.71646     1.75750     3.36500
    11.80000    90.28353   358.24256     3.36512    89.71647     1.75744     3.36512
    11.90000    90.28353   358.24263     3.36523    89.71647     1.75737     3.36523
    12.00000    90.28352   358.24269     3.36534    89.71648     1.75731     3.36534
    12.10000    90.28352   358.24276     3.36545    89.71648     1.75724     3.36545
    12.20000    90.28351   358.24282     3.36557    89.71649     1.75718     3.36557
    12.30000    90.28350   358.24289     3.36568    89.71650     1.75711     3.36568
    12.40000    90.28350   358.24295     3.36579    89.71650     1.75705     3.36579
    12.50000    90.28349   358.24302     3.36590    89.71651     1.75698     3.36590
    12.60000    90.28349   358.24309     3.36602    89.71651     1.75691     3.36602
    12.70000    90.28348   358.24315     3.36613    89.71652     1.75685     3.36613
    12.80000    90.28347   358.24322     3.36624    89.71653     1.75678     3.36624
    12.90000    90.28347   358.24328     3.36636    89.71653     1.75672     3.36636
    13.00000    90.28346   358.24335     3.36647    89.71654     1.75665     3.36647
    13.10000    90.28346   358.24341     3.36658    89.71654     1.75659     3.36658
    13.20000    90.28345   358.24348     3.36669    89.71655     1.75652     3.36669
    13.30000    90.28345   358.24354     3.36681    89.71655     1.75646     3.36681
    13.40000    90.28344   358.24361     3.36692    89.71656     1.75639     3.36692
    13.50000    90.28343   358.24367     3.36703    89.71657     1.75633     3.36703
    13.60000    90.28343   358.24374     3.36714    89.71657     1.75626     3.36714
    13.70000    90.28342   358.24380     3.36726    89.71658     1.75620     3.36726
    13.80000    90.28342   358.24387     3.36737    89.71658     1.75613     3.36737
    13.90000    90.28341   358.24393     3.36748    89.71659     1.75607     3.36748
    14.00000    90.28340   358.24400     3.36759    89.71660     1.75600     3.36759
    14.10000    90.28340   358.24406     3.36770    89.71660     1.75594     3.36770
    14.20000    90.28339   358.24413     3.36782    89.71661     1.75587     3.36782
    14.30000    90.28339   358.24419     3.36793    89.71661     1.75581     3.36793
    14.40000    90.28338   358.24426     3.36804    89.71662     1.75574     3.36804
    14.50000    90.28337   358.24432     3.36815    89.71663     1.75568     3.36815
    14.60000    90.28337   358.24439     3.36827    89.71663     1.75561     3.36827
    14.70000    90.28336   358.24445     3.36838    89.71664     1.75555     3.36838
    14.80000    90.28336   358.24452     3.36849    89.71664     1.75548     3.36849
    14.90000    90.28335   358.24458     3.36860    89.71665     1.75542     3.36860
    15.00000    90.28335   358.24465     3.36871    89.71665     1.75535     3.36871
    15.10000    90.28334   358.24471     3.36883    89.71666     1.75529     3.36883
    15.20000    90.28333   358.24478     3.36894    89.71667     1.75522     3.36894
    15.30000    90.28333   358.24484     3.36905    89.71667     1.75516     3.36905
    15.40000    90.28332   358.24491     3.36916    89.71668     1.75509     3.36916
    15.50000    90.28332   358.24497     3.36927    89.71668     1.75503     3.36927
    15.60000    90.28331   358.24504     3.36938    89.71669     1.75496     3.36938
    15.70000    90.28330   358.24510     3.36950    89.71670     1.75490     3.36950
    15.80000    90.28330   358.24517     3.36961    89.71670     1.75483     3.36961
    15.90000    90.28329   358.24523     3.36972    89.71671     1.75477     3.36972
    16.00000    90.28329   358.24530     3.36983    89.71671     1.75470     3.36983
    16.10000    90.28328   358.24536     3.36994    89.71672     1.75464     3.36994
    16.20000    90.28327   358.24543     3.37005    89.71673     1.75457     3.37005
    16.30000    90.28327   358.24549     3.37017    89.71673     1.75451     3.37017
    16.40000    90.28326   358.24555     3.37028    89.71674     1.75445     3.37028
    16.50000    90.28326   358.24562     3.37039    89.71674     1.75438     3.37039
    16.60000    90.28325   358.24568     3.37050    89.71675     1.75432     3.37050
    16.70000    90.28325   358.24575     3.37061    89.71675     1.75425     3.37061
    16.80000    90.28324   358.24581     3.37072    89.71676     1.75419     3.37072
    16.90000    90.28323   358.24588     3.37084    89.71677     1.75412     3.37084
    17.00000    90.28323   358.24594     3.37095    89.71677     1.75406     3.37095
    17.10000    90.28322   358.24601     3.37106    89.71678     1.75399     3.37106
    17.20000    90.28322   358.24607     3.37117    89.71678     1.75393     3.37117
    17.30000    90.28321   358.24614     3.37128    89.71679     1.75386     3.37128
    17.40000    90.28320   358.24620     3.37139    89.71680     1.75380     3.37139
    17.50000    90.28320   358.24627     3.37150    89.71680     1.75373     3.37150
    17.60000    90.28319   358.24633     3.37161    89.71681     1.75367     3.37161
    17.70000    90.28319   358.24640     3.37173    89.71681     1.75360     3.37173
    17.80000    90.28318   358.24646     3.37184    89.71682     1.75354     3.37184
    17.90000    90.28317   358.24653     3.37195    89.71683     1.75347     3.37195
    18.00000    90.28317   358.24659     3.37206    89.71683     1.75341     3.37206
    18.10000    90.28316   358.24665     3.37217    89.71684     1.75335     3.37217
    18.20000    90.28316   358.24672     3.37228    89.71684     1.75328     3.37228
    18.30000    90.28315   358.24678     3.37239    89.71685     1.75322     3.37239
    18.40000    90.28315   358.24685     3.37250    89.71685     1.75315     3.37250
    18.50000    90.28314   358.24691     3.37261    89.71686     1.75309     3.37261
    18.60000    90.28313   358.24698     3.37272    89.71687     1.75302     3.37272
    18.70000    90.28313   358.24704     3.37283    89.71687     1.75296     3.37283
    18.80000    90.28312   358.24711     3.37295    89.71688     1.75289     3.37295
    18.90000    90.28312   358.24717     3.37306    89.71688     1.75283     3.37306
    19.00000    90.28311   358.24724     3.37317    89.71689     1.75276     3.37317
    19.10000    90.28310   358.24730     3.37328    89.71690     1.75270     3.37328
    19.20000    90.28310   358.24736     3.37339    89.71690     1.75264     3.37339
    19.30000    90.28309   358.24743     3.37350    89.71691     1.75257     3.37350
    19.40000    90.28309   358.24749     3.37361    89.71691     1.75251     3.37361
    19.50000    90.28308   358.24756     3.37372    89.71692     1.75244     3.37372
    19.60000    90.28308   358.24762     3.37383    89.71692     1.75238     3.37383
    19.70000    90.28307   358.24769     3.37394    89.71693     1.75231     3.37394
    19.80000    90.28306   358.24775     3.37405    89.71694     1.75225     3.37405
    19.90000    90.28306   358.24782     3.37416    89.71694     1.75218     3.37416
    20.00000    90.28305   358.24788     3.37427    89.71695     1.75212     3.37427
    20.10000    90.28305   358.24794     3.37438    89.71695     1.75206     3.37438
    20.20000    90.28304   358.24801     3.37449    89.71696     1.75199     3.37449
    20.30000    90.28303   358.24807     3.37460    89.71697     1.75193     3.37460
    20.40000    90.28303   358.24814     3.37471    89.71697     1.75186     3.37471
    20.50000    90.28302   358.24820     3.37482    89.71698     1.75180     3.37482
    20.60000    90.28302   358.24827     3.37494    89.71698     1.75173     3.37494
    20.70000    90.28301   358.24833     3.37505    89.71699     1.75167     3.37505
    20.80000    90.28300   358.24839     3.37516    89.71700     1.75161     3.37516
    20.90000    90.28300   358.24846     3.37527    89.71700     1.75154     3.37527
    21.00000    90.28299   358.24852     3.37538    89.71701     1.75148     3.37538
    21.10000    90.28299   358.24859     3.37549    89.71701     1.75141     3.37549
    21.20000    90.28298   358.24865     3.37560    89.71702     1.75135     3.37560
    21.30000    90.28298   358.24872     3.37571    89.71702     1.75128     3.37571
    21.40000    90.28297   358.24878     3.37582    89.71703     1.75122     3.37582
    21.50000    90.28296   358.24884     3.37593    89.71704     1.75116     3.37593
    21.60000    90.28296   358.24891     3.37604    89.71704     1.75109     3.37604
    21.70000    90.28295   358.24897     3.37615    89.71705     1.75103     3.37615
    21.80000    90.28295   358.24904     3.37626    89.71705     1.75096     3.37626
    21.90000    90.28294   358.24910     3.37637    89.71706     1.75090     3.37637
    22.00000    90.28293   358.24916     3.37648    89.71707     1.75084     3.37648
    22.10000    90.28293   358.24923     3.37659    89.71707     1.75077     3.37659
    22.20000    90.28292   358.24929     3.37670    89.71708     1.75071     3.37670
    22.30000    90.28292   358.24936     3.37681    89.71708     1.75064     3.37681
    22.40000    90.28291   358.24942     3.37691    89.71709     1.75058     3.37691
    22.50000    90.28290   358.24949     3.37702    89.71710     1.75051     3.37702
    22.60000    90.28290   358.24955     3.37713    89.71710     1.75045     3.37713
    22.70000    90.28289   358.24961     3.37724    89.71711     1.75039     3.37724
    22.80000    90.28289   358.24968     3.37735    89.71711     1.75032     3.37735
    22.90000    90.28288   358.24974     3.37746    89.71712     1.75026     3.37746
    23.00000    90.28288   358.24981     3.37757    89.71712     1.75019     3.37757
    23.10000    90.28287   358.24987     3.37768    89.71713     1.75013     3.37768
    23.20000    90.28286   358.24993     3.37779    89.71714     1.75007     3.37779
    23.30000    90.28286   358.25000     3.37790    89.71714     1.75000     3.37790
    23.40000    90.28285   358.25006     3.37801    89.71715     1.74994     3.37801
    23.50000    90.28285   358.25013     3.37812    89.71715     1.74987     3.37812
    23.60000    90.28284   358.25019     3.37823    89.71716     1.74981     3.37823
    23.70000    90.28283   358.25025     3.37834    89.71717     1.74975     3.37834
    23.80000    90.28283   358.25032     3.37845    89.71717     1.74968     3.37845
    23.90000    90.28282   358.25038     3.37856    89.71718     1.74962     3.37856
    24.00000    90.28282   358.25045     3.37867    89.71718     1.74955     3.37867
    24.10000    90.28281   358.25051     3.37878    89.71719     1.74949     3.37878
    24.20000    90.28281   358.25057     3.37888    89.71719     1.74943     3.37888
    24.30000    90.28280   358.25064     3.37899    89.71720     1.74936     3.37899
    24.40000    90.28279   358.25070     3.37910    89.71721     1.74930     3.37910
    24.50000    90.28279   358.25077     3.37921    89.71721     1.74923     3.37921
    24.60000    90.28278   358.25083     3.37932    89.71722     1.74917     3.37932
    24.70000    90.28278   358.25089     3.37943    89.71722     1.74911     3.37943
    24.80000    90.28277   358.25096     3.37954    89.71723     1.74904     3.37954
    24.90000    90.28276   358.25102     3.37965    89.71724     1.74898     3.37965
    25.00000    90.28276   358.25108     3.37976    89.71724     1.74892     3.37976
    25.10000    90.28275   358.25115     3.37987    89.71725     1.74885     3.37987
    25.20000    90.28275   358.25121     3.37997    89.71725     1.74879     3.37997
    25.30000    90.28274   358.25128     3.38008    89.71726     1.74872     3.38008
    25.40000    90.28273   358.25134     3.38019    89.71727     1.74866     3.38019
    25.50000    90.28273   358.25140     3.38030    89.71727     1.74860     3.38030
    25.60000    90.28272   358.25147     3.38041    89.71728     1.74853     3.38041
    25.70000    90.28272   358.25153     3.38052    89.71728     1.74847     3.38052
    25.80000    90.28271   358.25159     3.38063    89.71729     1.74841     3.38063
    25.90000    90.28271   358.25166     3.38074    89.71729     1.74834     3.38074
    26.00000    90.28270   358.25172     3.38084    89.71730     1.74828     3.38084
    26.10000    90.28269   358.25179     3.38095    89.71731     1.74821     3.38095
    26.20000    90.28269   358.25185     3.38106    89.71731     1.74815     3.38106
    26.30000    90.28268   358.25191     3.38117    89.71732     1.74809     3.38117
    26.40000    90.28268   358.25198     3.38128    89.71732     1.74802     3.38128
    26.50000    90.28267   358.25204     3.38139    89.71733     1.74796     3.38139
    26.60000    90.28266   358.25210     3.38150    89.71734     1.74790     3.38150
    26.70000    90.28266   358.25217     3.38160    89.71734     1.74783     3.38160
    26.80000    90.28265   358.25223     3.38171    89.71735     1.74777     3.38171
    26.90000    90.28265   358.25229     3.38182    89.71735     1.74771     3.38182
    27.00000    90.28264   358.25236     3.38193    89.71736     1.74764     3.38193
    27.10000    90.28264   358.25242     3.38204    89.71736     1.74758     3.38204
    27.20000    90.28263   358.25249     3.38215    89.71737     1.74751     3.38215
    27.30000    90.28262   358.25255     3.38225    89.71738     1.74745     3.38225
    27.40000    90.28262   358.25261     3.38236    89.71738     1.74739     3.38236
    27.50000    90.28261   358.25268     3.38247    89.71739     1.74732     3.38247
    27.60000    90.28261   358.25274     3.38258    89.71739     1.74726     3.38258
    27.70000    90.28260   358.25280     3.38269    89.71740     1.74720     3.38269
    27.80000    90.28259   358.25287     3.38279    89.71741     1.74713     3.38279
    27.90000    90.28259   358.25293     3.38290    89.71741     1.74707     3.38290
    28.00000    90.28258   358.25299     3.38301    89.71742     1.74701     3.38301
    28.10000    90.28258   358.25306     3.38312    89.71742     1.74694     3.38312
    28.20000    90.28257   358.25312     3.38323    89.71743     1.74688     3.38323
    28.30000    90.28256   358.25318     3.38333    89.71744     1.74682     3.38333
    28.40000    90.28256   358.25325     3.38344    89.71744     1.74675     3.38344
    28.50000    90.28255   358.25331     3.38355    89.71745     1.74669     3.38355
    28.60000    90.28255   358.25337     3.38366    89.71745     1.74663     3.38366
    28.70000    90.28254   358.25344     3.38377    89.71746     1.74656     3.38377
    28.80000    90.28254   358.25350     3.38387    89.71746     1.74650     3.38387
    28.90000    90.28253   358.25356     3.38398    89.71747     1.74644     3.38398
    29.00000    90.28252   358.25363     3.38409    89.71748     1.74637     3.38409
    29.10000    90.28252   358.25369     3.38420    89.71748     1.74631     3.38420
    29.20000    90.28251   358.25375     3.38430    89.71749     1.74625     3.38430
    29.30000    90.28251   358.25382     3.38441    89.71749     1.74618     3.38441
    29.40000    90.28250   358.25388     3.38452    89.71750     1.74612     3.38452
    29.50000    90.28249   358.25394     3.38463    89.71751     1.74606     3.38463
    29.60000    90.28249   358.25401     3.38473    89.71751     1.74599     3.38473
    29.70000    90.28248   358.25407     3.38484    89.71752     1.74593     3.38484
    29.80000    90.28248   358.25413     3.38495    89.71752     1.74587     3.38495
    29.90000    90.28247   358.25420     3.38506    89.71753     1.74580     3.38506
    30.00000    90.28247   358.25426     3.38516    89.71753     1.74574     3.38516
    30.10000    90.28246   358.25432     3.38527    89.71754     1.74568     3.38527
    30.20000    90.28245   358.25439     3.38538    89.71755     1.74561     3.38538
    30.30000    90.28245   358.25445     3.38549    89.71755     1.74555     3.38549
    30.40000    90.28244   358.25451     3.38559    89.71756     1.74549     3.38559
    30.50000    90.28244   358.25458     3.38570    89.71756     1.74542     3.38570
    30.60000    90.28243   358.25464     3.38581    89.71757     1.74536     3.38581
    30.70000    90.28242   358.25470     3.38592    89.71758     1.74530     3.38592
    30.80000    90.28242   358.25477     3.38602    89.71758     1.74523     3.38602
    30.90000    90.28241   358.25483     3.38613    89.71759     1.74517     3.38613
    31.00000    90.28241   358.25489     3.38624    89.71759     1.74511     3.38624
    31.10000    90.28240   358.25496     3.38634    89.71760     1.74504     3.38634
    31.20000    90.28240   358.25502     3.38645    89.71760     1.74498     3.38645
    31.30000    90.28239   358.25508     3.38656    89.71761     1.74492     3.38656
    31.40000    90.28238   358.25515     3.38667    89.71762     1.74485     3.38667
    31.50000    90.28238   358.25521     3.38677    89.71762     1.74479     3.38677
    31.60000    90.28237   358.25527     3.38688    89.71763     1.74473     3.38688
    31.70000    90.28237   358.25533     3.38699    89.71763     1.74467     3.38699
    31.80000    90.28236   358.25540     3.38709    89.71764     1.74460     3.38709
    31.90000    90.28235   358.25546     3.38720    89.71765     1.74454     3.38720
    32.00000    90.28235   358.25552     3.38731    89.71765     1.74448     3.38731
    32.10000    90.28234   358.25559     3.38741    89.71766     1.74441     3.38741
    32.20000    90.28234   358.25565     3.38752    89.71766     1.74435     3.38752
    32.30000    90.28233   358.25571     3.38763    89.71767     1.74429     3.38763
    32.40000    90.28232   358.25578     3.38773    89.71768     1.74422     3.38773
    32.50000    90.28232   358.25584     3.38784    89.71768     1.74416     3.38784
    32.60000    90.28231   358.25590     3.38795    89.71769     1.74410     3.38795
    32.70000    90.28231   358.25596     3.38805    89.71769     1.74404     3.38805
    32.80000    90.28230   358.25603     3.38816    89.71770     1.74397     3.38816
    32.90000    90.28230   358.25609     3.38827    89.71770     1.74391     3.38827
    33.00000    90.28229   358.25615     3.38837    89.71771     1.74385     3.38837
    33.10000    90.28228   358.25622     3.38848    89.71772     1.74378     3.38848
    33.20000    90.28228   358.25628     3.38859    89.71772     1.74372     3.38859
    33.30000    90.28227   358.25634     3.38869    89.71773     1.74366     3.38869
    33.40000    90.28227   358.25641     3.38880    89.71773     1.74359     3.38880
    33.50000    90.28226   358.25647     3.38891    89.71774     1.74353     3.38891
    33.60000    90.28225   358.25653     3.38901    89.71775     1.74347     3.38901
    33.70000    90.28225   358.25659     3.38912    89.71775     1.74341     3.38912
    33.80000    90.28224   358.25666     3.38922    89.71776     1.74334     3.38922
    33.90000    90.28224   358.25672     3.38933    89.71776     1.74328     3.38933
    34.00000    90.28223   358.25678     3.38944    89.71777     1.74322     3.38944
    34.10000    90.28223   358.25684     3.38954    89.71777     1.74316     3.38954
    34.20000    90.28222   358.25691     3.38965    89.71778     1.74309     3.38965
    34.30000    90.28221   358.25697     3.38976    89.71779     1.74303     3.38976
    34.40000    90.28221   358.25703     3.38986    89.71779     1.74297     3.38986
    34.50000    90.28220   358.25710     3.38997    89.71780     1.74290     3.38997
    34.60000    90.28220   358.25716     3.39007    89.71780     1.74284     3.39007
    34.70000    90.28219   358.25722     3.39018    89.71781     1.74278     3.39018
    34.80000    90.28218   358.25728     3.39029    89.71782     1.74272     3.39029
    34.90000    90.28218   358.25735     3.39039    89.71782     1.74265     3.39039
    35.00000    90.28217   358.25741     3.39050    89.71783     1.74259     3.39050
    35.10000    90.28217   358.25747     3.39060    89.71783     1.74253     3.39060
    35.20000    90.28216   358.25753     3.39071    89.71784     1.74247     3.39071
    35.30000    90.28216   358.25760     3.39082    89.71784     1.74240     3.39082
    35.40000    90.28215   358.25766     3.39092    89.71785     1.74234     3.39092
    35.50000    90.28214   358.25772     3.39103    89.71786     1.74228     3.39103
    35.60000    90.28214   358.25779     3.39113    89.71786     1.74221     3.39113
    35.70000    90.28213   358.25785     3.39124    89.71787     1.74215     3.39124
    35.80000    90.28213   358.25791     3.39134    89.71787     1.74209     3.39134
    35.90000    90.28212   358.25797     3.39145    89.71788     1.74203     3.39145
    36.00000    90.28211   358.25804     3.39156    89.71789     1.74196     3.39156
    36.10000    90.28211   358.25810     3.39166    89.71789     1.74190     3.39166
    36.20000    90.28210   358.25816     3.39177    89.71790     1.74184     3.39177
    36.30000    90.28210   358.25822     3.39187    89.71790     1.74178     3.39187
    36.40000    90.28209   358.25829     3.39198    89.71791     1.74171     3.39198
    36.50000    90.28209   358.25835     3.39208    89.71791     1.74165     3.39208
    36.60000    90.28208   358.25841     3.39219    89.71792     1.74159     3.39219
    36.70000    90.28207   358.25847     3.39229    89.71793     1.74153     3.39229
    36.80000    90.28207   358.25854     3.39240    89.71793     1.74146     3.39240
    36.90000    90.28206   358.25860     3.39250    89.71794     1.74140     3.39250
    37.00000    90.28206   358.25866     3.39261    89.71794     1.74134     3.39261
    37.10000    90.28205   358.25872     3.39271    89.71795     1.74128     3.39271
    37.20000    90.28204   358.25879     3.39282    89.71796     1.74121     3.39282
    37.30000    90.28204   358.25885     3.39293    89.71796     1.74115     3.39293
    37.40000    90.28203   358.25891     3.39303    89.71797     1.74109     3.39303
    37.50000    90.28203   358.25897     3.39314    89.71797     1.74103     3.39314
    37.60000    90.28202   358.25904     3.39324    89.71798     1.74096     3.39324
    37.70000    90.28202   358.25910     3.39335    89.71798     1.74090     3.39335
    37.80000    90.28201   358.25916     3.39345    89.71799     1.74084     3.39345
    37.90000    90.28200   358.25922     3.39356    89.71800     1.74078     3.39356
    38.00000    90.28200   358.25929     3.39366    89.71800     1.74071     3.39366
    38.10000    90.28199   358.25935     3.39377    89.71801     1.74065     3.39377
    38.20000    90.28199   358.25941     3.39387    89.71801     1.74059     3.39387
    38.30000    90.28198   358.25947     3.39398    89.71802     1.74053     3.39398
    38.40000    90.28197   358.25953     3.39408    89.71803     1.74047     3.39408
    38.50000    90.28197   358.25960     3.39419    89.71803     1.74040     3.39419
    38.60000    90.28196   358.25966     3.39429    89.71804     1.74034     3.39429
    38.70000    90.28196   358.25972     3.39440    89.71804     1.74028     3.39440
    38.80000    90.28195   358.25978     3.39450    89.71805     1.74022     3.39450
    38.90000    90.28195   358.25985     3.39461    89.71805     1.74015     3.39461
    39.00000    90.28194   358.25991     3.39471    89.71806     1.74009     3.39471
    39.10000    90.28193   358.25997     3.39481    89.71807     1.74003     3.39481
    39.20000    90.28193   358.26003     3.39492    89.71807     1.73997     3.39492
    39.30000    90.28192   358.26009     3.39502    89.71808     1.73991     3.39502
    39.40000    90.28192   358.26016     3.39513    89.71808     1.73984     3.39513
    39.50000    90.28191   358.26022     3.39523    89.71809     1.73978     3.39523
    39.60000    90.28190   358.26028     3.39534    89.71810     1.73972     3.39534
    39.70000    90.28190   358.26034     3.39544    89.71810     1.73966     3.39544
    39.80000    90.28189   358.26041     3.39555    89.71811     1.73959     3.39555
    39.90000    90.28189   358.26047     3.39565    89.71811     1.73953     3.39565
    40.00000    90.28188   358.26053     3.39576    89.71812     1.73947     3.39576
