 # applied field (T), theta (degree), phi (degree), abs for RE 3-4
     0.00000     1.02300   135.00000     0.31080     1.02300    45.00000     0.31080
     0.10000     1.03121   127.75811     0.31081     1.21725    45.00000     0.31082
     0.20000     1.05545   120.73629     0.31082     1.41216    45.00000     0.31084
     0.30000     1.09945   113.47720     0.31083     1.63181    45.00000     0.31087
     0.40000     1.15355   107.43743     0.31086     1.82841    45.00000     0.31090
     0.50000     1.21936   101.98153     0.31089     2.02590    45.00000     0.31093
     0.60000     1.29522    97.11073     0.31092     2.22435    45.00000     0.31097
     0.70000     1.38857    92.38311     0.31097     2.44851    45.00000     0.31102
     0.80000     1.48086    88.61531     0.31102     2.64927    45.00000     0.31107
     0.90000     1.57915    85.28846     0.31107     2.85121    45.00000     0.31113
     1.00000     1.68258    82.34676     0.31113     3.05439    45.00000     0.31118
     1.10000     1.80173    79.48687     0.31121     3.28442    45.00000     0.31126
     1.20000     1.91387    77.19319     0.31128     3.49052    45.00000     0.31132
     1.30000     2.02938    75.14411     0.31136     3.69808    45.00000     0.31140
     1.40000     2.16042    73.12477     0.31146     3.93348    45.00000     0.31148
     1.50000     2.28208    71.48613     0.31155     4.14440    45.00000     0.31156
     1.60000     2.40629    70.00369     0.31164     4.35697    45.00000     0.31165
     1.70000     2.54637    68.52127     0.31176     4.59850    45.00000     0.31175
     1.80000     2.67553    67.30485     0.31187     4.81487    45.00000     0.31185
     1.90000     2.80687    66.19151     0.31199     5.03309    45.00000     0.31194
     2.00000     2.95473    65.06320     0.31213     5.28146    45.00000     0.31206
     2.10000     3.09053    64.12873     0.31225     5.50389    45.00000     0.31217
     2.20000     3.24343    63.17396     0.31241     5.75734    45.00000     0.31229
     2.30000     3.38357    62.37916     0.31254     5.98426    45.00000     0.31240
     2.40000     3.54145    61.56107     0.31271     6.24311    45.00000     0.31254
     2.50000     3.68592    60.87710     0.31286     6.47478    45.00000     0.31266
     2.60000     3.84884    60.16836     0.31304     6.73933    45.00000     0.31280
     2.70000     4.01451    59.50835     0.31323     7.00709    45.00000     0.31295
     2.80000     4.16576    58.95369     0.31339     7.24655    45.00000     0.31308
     2.90000     4.33665    58.37368     0.31359     7.52045    45.00000     0.31323
     3.00000     4.51041    57.82991     0.31380     7.79778    45.00000     0.31339
     3.10000     4.66875    57.37117     0.31398     8.04561    45.00000     0.31353
     3.20000     4.84801    56.88767     0.31419     8.32950    45.00000     0.31370
     3.30000     5.03030    56.43186     0.31442     8.61703    45.00000     0.31386
     3.40000     5.21569    56.00142     0.31464     8.90826    45.00000     0.31404
     3.50000     5.40423    55.59432     0.31488     9.20328    45.00000     0.31421
     3.60000     5.59600    55.20872     0.31512     9.50215    45.00000     0.31439
     3.70000     5.79105    54.84299     0.31536     9.80492    45.00000     0.31457
     3.80000     5.98945    54.49565     0.31561    10.11166    45.00000     0.31475
     3.90000     6.19126    54.16540     0.31586    10.42243    45.00000     0.31493
     4.00000     6.41909    53.81703     0.31616    10.77535    45.00000     0.31514
     4.10000     6.62842    53.51884     0.31642    11.09495    45.00000     0.31533
     4.20000     6.84136    53.23439     0.31669    11.41874    45.00000     0.31552
     4.30000     7.08217    52.93284     0.31700    11.78676    45.00000     0.31574
     4.40000     7.30304    52.67442     0.31728    12.11970    45.00000     0.31593
     4.50000     7.55309    52.39966     0.31760    12.49832    45.00000     0.31616
     4.60000     7.80821    52.13761     0.31793    12.88268    45.00000     0.31638
     4.70000     8.04178    51.91289     0.31821    13.23001    45.00000     0.31658
     4.80000     8.30661    51.67296     0.31854    13.62525    45.00000     0.31680
     4.90000     8.57674    51.44364     0.31888    14.02637    45.00000     0.31703
     5.00000     8.88097    51.20177     0.31926    14.47845    45.00000     0.31728
     5.10000     9.16263    50.99269     0.31960    14.89216    45.00000     0.31751
     5.20000     9.44984    50.79247     0.31995    15.31184    45.00000     0.31774
     5.30000     9.77359    50.58062     0.32034    15.78494    45.00000     0.31799
     5.40000    10.10457    50.37824     0.32074    16.26565    45.00000     0.31825
     5.50000    10.44286    50.18481     0.32113    16.75398    45.00000     0.31850
     5.60000    10.78856    49.99985     0.32153    17.24993    45.00000     0.31875
     5.70000    11.14174    49.82289     0.32193    17.75348    45.00000     0.31900
     5.80000    11.53771    49.63726     0.32237    18.31645    45.00000     0.31928
     5.90000    11.94314    49.46015     0.32282    18.88875    45.00000     0.31955
     6.00000    12.35812    49.29111     0.32326    19.47032    45.00000     0.31982
     6.10000    12.82099    49.11546     0.32375    20.11584    45.00000     0.32011
     6.20000    13.25628    48.96187     0.32419    20.71661    45.00000     0.32037
     6.30000    13.78213    48.78910     0.32472    21.43980    45.00000     0.32068
     6.40000    14.32220    48.62513     0.32524    22.17574    45.00000     0.32098
     6.50000    90.00000    45.00000     0.33458    85.65323    45.00000     0.32370
     6.60000    90.00000    45.00000     0.33461    85.65472    45.00000     0.32372
     6.70000    90.00000    45.00000     0.33463    85.65620    45.00000     0.32374
     6.80000    90.00000    45.00000     0.33465    85.65769    45.00000     0.32377
     6.90000    90.00000    45.00000     0.33468    85.65918    45.00000     0.32379
     7.00000    90.00000    45.00000     0.33470    85.66066    45.00000     0.32381
     7.10000    90.00000    45.00000     0.33472    85.66215    45.00000     0.32383
     7.20000    90.00000    45.00000     0.33475    85.66363    45.00000     0.32385
     7.30000    90.00000    45.00000     0.33477    85.66512    45.00000     0.32388
     7.40000    90.00000    45.00000     0.33480    85.66660    45.00000     0.32390
     7.50000    90.00000    45.00000     0.33482    85.66809    45.00000     0.32392
     7.60000    90.00000    45.00000     0.33484    85.66957    45.00000     0.32394
     7.70000    90.00000    45.00000     0.33487    85.67105    45.00000     0.32396
     7.80000    90.00000    45.00000     0.33489    85.67254    45.00000     0.32399
     7.90000    90.00000    45.00000     0.33491    85.67402    45.00000     0.32401
     8.00000    90.00000    45.00000     0.33494    85.67550    45.00000     0.32403
     8.10000    90.00000    45.00000     0.33496    85.67698    45.00000     0.32405
     8.20000    90.00000    45.00000     0.33499    85.67846    45.00000     0.32407
     8.30000    90.00000    45.00000     0.33501    85.67994    45.00000     0.32410
     8.40000    90.00000    45.00000     0.33503    85.68142    45.00000     0.32412
     8.50000    90.00000    45.00000     0.33506    85.68290    45.00000     0.32414
     8.60000    90.00000    45.00000     0.33508    85.68438    45.00000     0.32416
     8.70000    90.00000    45.00000     0.33510    85.68586    45.00000     0.32418
     8.80000    90.00000    45.00000     0.33513    85.68733    45.00000     0.32421
     8.90000    90.00000    45.00000     0.33515    85.68881    45.00000     0.32423
     9.00000    90.00000    45.00000     0.33518    85.69029    45.00000     0.32425
     9.10000    90.00000    45.00000     0.33520    85.69176    45.00000     0.32427
     9.20000    90.00000    45.00000     0.33522    85.69324    45.00000     0.32429
     9.30000    90.00000    45.00000     0.33525    85.69471    45.00000     0.32432
     9.40000    90.00000    45.00000     0.33527    85.69619    45.00000     0.32434
     9.50000    90.00000    45.00000     0.33529    85.69766    45.00000     0.32436
     9.60000    90.00000    45.00000     0.33532    85.69914    45.00000     0.32438
     9.70000    90.00000    45.00000     0.33534    85.70061    45.00000     0.32440
     9.80000    90.00000    45.00000     0.33537    85.70208    45.00000     0.32443
     9.90000    90.00000    45.00000     0.33539    85.70356    45.00000     0.32445
    10.00000    90.00000    45.00000     0.33541    85.70503    45.00000     0.32447
    10.10000    90.00000    45.00000     0.33544    85.70650    45.00000     0.32449
    10.20000    90.00000    45.00000     0.33546    85.70797    45.00000     0.32452
    10.30000    90.00000    45.00000     0.33548    85.70944    45.00000     0.32454
    10.40000    90.00000    45.00000     0.33551    85.71091    45.00000     0.32456
    10.50000    90.00000    45.00000     0.33553    85.71238    45.00000     0.32458
    10.60000    90.00000    45.00000     0.33556    85.71385    45.00000     0.32460
    10.70000    90.00000    45.00000     0.33558    85.71532    45.00000     0.32463
    10.80000    90.00000    45.00000     0.33560    85.71679    45.00000     0.32465
    10.90000    90.00000    45.00000     0.33563    85.71826    45.00000     0.32467
    11.00000    90.00000    45.00000     0.33565    85.71973    45.00000     0.32469
    11.10000    90.00000    45.00000     0.33567    85.72119    45.00000     0.32471
    11.20000    90.00000    45.00000     0.33570    85.72266    45.00000     0.32474
    11.30000    90.00000    45.00000     0.33572    85.72413    45.00000     0.32476
    11.40000    90.00000    45.00000     0.33575    85.72559    45.00000     0.32478
    11.50000    90.00000    45.00000     0.33577    85.72706    45.00000     0.32480
    11.60000    90.00000    45.00000     0.33579    85.72852    45.00000     0.32482
    11.70000    90.00000    45.00000     0.33582    85.72999    45.00000     0.32485
    11.80000    90.00000    45.00000     0.33584    85.73145    45.00000     0.32487
    11.90000    90.00000    45.00000     0.33587    85.73292    45.00000     0.32489
    12.00000    90.00000    45.00000     0.33589    85.73438    45.00000     0.32491
    12.10000    90.00000    45.00000     0.33591    85.73584    45.00000     0.32494
    12.20000    90.00000    45.00000     0.33594    85.73731    45.00000     0.32496
    12.30000    90.00000    45.00000     0.33596    85.73877    45.00000     0.32498
    12.40000    90.00000    45.00000     0.33598    85.74023    45.00000     0.32500
    12.50000    90.00000    45.00000     0.33601    85.74169    45.00000     0.32502
    12.60000    90.00000    45.00000     0.33603    85.74315    45.00000     0.32505
    12.70000    90.00000    45.00000     0.33606    85.74461    45.00000     0.32507
    12.80000    90.00000    45.00000     0.33608    85.74607    45.00000     0.32509
    12.90000    90.00000    45.00000     0.33610    85.74753    45.00000     0.32511
    13.00000    90.00000    45.00000     0.33613    85.74899    45.00000     0.32514
    13.10000    90.00000    45.00000     0.33615    85.75045    45.00000     0.32516
    13.20000    90.00000    45.00000     0.33618    85.75190    45.00000     0.32518
    13.30000    90.00000    45.00000     0.33620    85.75336    45.00000     0.32520
    13.40000    90.00000    45.00000     0.33622    85.75482    45.00000     0.32522
    13.50000    90.00000    45.00000     0.33625    85.75627    45.00000     0.32525
    13.60000    90.00000    45.00000     0.33627    85.75773    45.00000     0.32527
    13.70000    90.00000    45.00000     0.33630    85.75919    45.00000     0.32529
    13.80000    90.00000    45.00000     0.33632    85.76064    45.00000     0.32531
    13.90000    90.00000    45.00000     0.33634    85.76210    45.00000     0.32533
    14.00000    90.00000    45.00000     0.33637    85.76355    45.00000     0.32536
    14.10000    90.00000    45.00000     0.33639    85.76500    45.00000     0.32538
    14.20000    90.00000    45.00000     0.33641    85.76646    45.00000     0.32540
    14.30000    90.00000    45.00000     0.33644    85.76791    45.00000     0.32542
    14.40000    90.00000    45.00000     0.33646    85.76936    45.00000     0.32545
    14.50000    90.00000    45.00000     0.33649    85.77081    45.00000     0.32547
    14.60000    90.00000    45.00000     0.33651    85.77227    45.00000     0.32549
    14.70000    90.00000    45.00000     0.33653    85.77372    45.00000     0.32551
    14.80000    90.00000    45.00000     0.33656    85.77517    45.00000     0.32553
    14.90000    90.00000    45.00000     0.33658    85.77662    45.00000     0.32556
    15.00000    90.00000    45.00000     0.33661    85.77807    45.00000     0.32558
    15.10000    90.00000    45.00000     0.33663    85.77952    45.00000     0.32560
    15.20000    90.00000    45.00000     0.33665    85.78097    45.00000     0.32562
    15.30000    90.00000    45.00000     0.33668    85.78241    45.00000     0.32565
    15.40000    90.00000    45.00000     0.33670    85.78386    45.00000     0.32567
    15.50000    90.00000    45.00000     0.33673    85.78531    45.00000     0.32569
    15.60000    90.00000    45.00000     0.33675    85.78676    45.00000     0.32571
    15.70000    90.00000    45.00000     0.33677    85.78820    45.00000     0.32573
    15.80000    90.00000    45.00000     0.33680    85.78965    45.00000     0.32576
    15.90000    90.00000    45.00000     0.33682    85.79110    45.00000     0.32578
    16.00000    90.00000    45.00000     0.33685    85.79254    45.00000     0.32580
    16.10000    90.00000    45.00000     0.33687    85.79399    45.00000     0.32582
    16.20000    90.00000    45.00000     0.33689    85.79543    45.00000     0.32585
    16.30000    90.00000    45.00000     0.33692    85.79687    45.00000     0.32587
    16.40000    90.00000    45.00000     0.33694    85.79832    45.00000     0.32589
    16.50000    90.00000    45.00000     0.33697    85.79976    45.00000     0.32591
    16.60000    90.00000    45.00000     0.33699    85.80120    45.00000     0.32594
    16.70000    90.00000    45.00000     0.33701    85.80265    45.00000     0.32596
    16.80000    90.00000    45.00000     0.33704    85.80409    45.00000     0.32598
    16.90000    90.00000    45.00000     0.33706    85.80553    45.00000     0.32600
    17.00000    90.00000    45.00000     0.33709    85.80697    45.00000     0.32602
    17.10000    90.00000    45.00000     0.33711    85.80841    45.00000     0.32605
    17.20000    90.00000    45.00000     0.33713    85.80985    45.00000     0.32607
    17.30000    90.00000    45.00000     0.33716    85.81129    45.00000     0.32609
    17.40000    90.00000    45.00000     0.33718    85.81273    45.00000     0.32611
    17.50000    90.00000    45.00000     0.33721    85.81417    45.00000     0.32614
    17.60000    90.00000    45.00000     0.33723    85.81561    45.00000     0.32616
    17.70000    90.00000    45.00000     0.33725    85.81705    45.00000     0.32618
    17.80000    90.00000    45.00000     0.33728    85.81848    45.00000     0.32620
    17.90000    90.00000    45.00000     0.33730    85.81992    45.00000     0.32623
    18.00000    90.00000    45.00000     0.33733    85.82136    45.00000     0.32625
    18.10000    90.00000    45.00000     0.33735    85.82279    45.00000     0.32627
    18.20000    90.00000    45.00000     0.33737    85.82423    45.00000     0.32629
    18.30000    90.00000    45.00000     0.33740    85.82566    45.00000     0.32631
    18.40000    90.00000    45.00000     0.33742    85.82710    45.00000     0.32634
    18.50000    90.00000    45.00000     0.33745    85.82853    45.00000     0.32636
    18.60000    90.00000    45.00000     0.33747    85.82997    45.00000     0.32638
    18.70000    90.00000    45.00000     0.33749    85.83140    45.00000     0.32640
    18.80000    90.00000    45.00000     0.33752    85.83283    45.00000     0.32643
    18.90000    90.00000    45.00000     0.33754    85.83427    45.00000     0.32645
    19.00000    90.00000    45.00000     0.33757    85.83570    45.00000     0.32647
    19.10000    90.00000    45.00000     0.33759    85.83713    45.00000     0.32649
    19.20000    90.00000    45.00000     0.33761    85.83856    45.00000     0.32652
    19.30000    90.00000    45.00000     0.33764    85.83999    45.00000     0.32654
    19.40000    90.00000    45.00000     0.33766    85.84142    45.00000     0.32656
    19.50000    90.00000    45.00000     0.33769    85.84285    45.00000     0.32658
    19.60000    90.00000    45.00000     0.33771    85.84428    45.00000     0.32661
    19.70000    90.00000    45.00000     0.33773    85.84571    45.00000     0.32663
    19.80000    90.00000    45.00000     0.33776    85.84714    45.00000     0.32665
    19.90000    90.00000    45.00000     0.33778    85.84857    45.00000     0.32667
    20.00000    90.00000    45.00000     0.33781    85.85000    45.00000     0.32669
    20.10000    90.00000    45.00000     0.33783    85.85142    45.00000     0.32672
    20.20000    90.00000    45.00000     0.33786    85.85285    45.00000     0.32674
    20.30000    90.00000    45.00000     0.33788    85.85428    45.00000     0.32676
    20.40000    90.00000    45.00000     0.33790    85.85570    45.00000     0.32678
    20.50000    90.00000    45.00000     0.33793    85.85713    45.00000     0.32681
    20.60000    90.00000    45.00000     0.33795    85.85855    45.00000     0.32683
    20.70000    90.00000    45.00000     0.33798    85.85998    45.00000     0.32685
    20.80000    90.00000    45.00000     0.33800    85.86140    45.00000     0.32687
    20.90000    90.00000    45.00000     0.33802    85.86283    45.00000     0.32690
    21.00000    90.00000    45.00000     0.33805    85.86425    45.00000     0.32692
    21.10000    90.00000    45.00000     0.33807    85.86567    45.00000     0.32694
    21.20000    90.00000    45.00000     0.33810    85.86710    45.00000     0.32696
    21.30000    90.00000    45.00000     0.33812    85.86852    45.00000     0.32699
    21.40000    90.00000    45.00000     0.33814    85.86994    45.00000     0.32701
    21.50000    90.00000    45.00000     0.33817    85.87136    45.00000     0.32703
    21.60000    90.00000    45.00000     0.33819    85.87278    45.00000     0.32705
    21.70000    90.00000    45.00000     0.33822    85.87420    45.00000     0.32708
    21.80000    90.00000    45.00000     0.33824    85.87562    45.00000     0.32710
    21.90000    90.00000    45.00000     0.33827    85.87704    45.00000     0.32712
    22.00000    90.00000    45.00000     0.33829    85.87846    45.00000     0.32714
    22.10000    90.00000    45.00000     0.33831    85.87988    45.00000     0.32717
    22.20000    90.00000    45.00000     0.33834    85.88130    45.00000     0.32719
    22.30000    90.00000    45.00000     0.33836    85.88272    45.00000     0.32721
    22.40000    90.00000    45.00000     0.33839    85.88413    45.00000     0.32723
    22.50000    90.00000    45.00000     0.33841    85.88555    45.00000     0.32726
    22.60000    90.00000    45.00000     0.33843    85.88697    45.00000     0.32728
    22.70000    90.00000    45.00000     0.33846    85.88838    45.00000     0.32730
    22.80000    90.00000    45.00000     0.33848    85.88980    45.00000     0.32732
    22.90000    90.00000    45.00000     0.33851    85.89121    45.00000     0.32735
    23.00000    90.00000    45.00000     0.33853    85.89263    45.00000     0.32737
    23.10000    90.00000    45.00000     0.33856    85.89404    45.00000     0.32739
    23.20000    90.00000    45.00000     0.33858    85.89546    45.00000     0.32741
    23.30000    90.00000    45.00000     0.33860    85.89687    45.00000     0.32744
    23.40000    90.00000    45.00000     0.33863    85.89828    45.00000     0.32746
    23.50000    90.00000    45.00000     0.33865    85.89970    45.00000     0.32748
    23.60000    90.00000    45.00000     0.33868    85.90111    45.00000     0.32750
    23.70000    90.00000    45.00000     0.33870    85.90252    45.00000     0.32753
    23.80000    90.00000    45.00000     0.33872    85.90393    45.00000     0.32755
    23.90000    90.00000    45.00000     0.33875    85.90534    45.00000     0.32757
    24.00000    90.00000    45.00000     0.33877    85.90675    45.00000     0.32759
    24.10000    90.00000    45.00000     0.33880    85.90816    45.00000     0.32762
    24.20000    90.00000    45.00000     0.33882    85.90957    45.00000     0.32764
    24.30000    90.00000    45.00000     0.33885    85.91098    45.00000     0.32766
    24.40000    90.00000    45.00000     0.33887    85.91239    45.00000     0.32768
    24.50000    90.00000    45.00000     0.33889    85.91380    45.00000     0.32771
    24.60000    90.00000    45.00000     0.33892    85.91521    45.00000     0.32773
    24.70000    90.00000    45.00000     0.33894    85.91662    45.00000     0.32775
    24.80000    90.00000    45.00000     0.33897    85.91802    45.00000     0.32777
    24.90000    90.00000    45.00000     0.33899    85.91943    45.00000     0.32780
    25.00000    90.00000    45.00000     0.33902    85.92084    45.00000     0.32782
    25.10000    90.00000    45.00000     0.33904    85.92224    45.00000     0.32784
    25.20000    90.00000    45.00000     0.33906    85.92365    45.00000     0.32786
    25.30000    90.00000    45.00000     0.33909    85.92505    45.00000     0.32789
    25.40000    90.00000    45.00000     0.33911    85.92646    45.00000     0.32791
    25.50000    90.00000    45.00000     0.33914    85.92786    45.00000     0.32793
    25.60000    90.00000    45.00000     0.33916    85.92926    45.00000     0.32795
    25.70000    90.00000    45.00000     0.33919    85.93067    45.00000     0.32798
    25.80000    90.00000    45.00000     0.33921    85.93207    45.00000     0.32800
    25.90000    90.00000    45.00000     0.33923    85.93347    45.00000     0.32802
    26.00000    90.00000    45.00000     0.33926    85.93488    45.00000     0.32804
    26.10000    90.00000    45.00000     0.33928    85.93628    45.00000     0.32807
    26.20000    90.00000    45.00000     0.33931    85.93768    45.00000     0.32809
    26.30000    90.00000    45.00000     0.33933    85.93908    45.00000     0.32811
    26.40000    90.00000    45.00000     0.33936    85.94048    45.00000     0.32813
    26.50000    90.00000    45.00000     0.33938    85.94188    45.00000     0.32816
    26.60000    90.00000    45.00000     0.33940    85.94328    45.00000     0.32818
    26.70000    90.00000    45.00000     0.33943    85.94468    45.00000     0.32820
    26.80000    90.00000    45.00000     0.33945    85.94608    45.00000     0.32822
    26.90000    90.00000    45.00000     0.33948    85.94747    45.00000     0.32825
    27.00000    90.00000    45.00000     0.33950    85.94887    45.00000     0.32827
    27.10000    90.00000    45.00000     0.33953    85.95027    45.00000     0.32829
    27.20000    90.00000    45.00000     0.33955    85.95167    45.00000     0.32831
    27.30000    90.00000    45.00000     0.33957    85.95306    45.00000     0.32834
    27.40000    90.00000    45.00000     0.33960    85.95446    45.00000     0.32836
    27.50000    90.00000    45.00000     0.33962    85.95586    45.00000     0.32838
    27.60000    90.00000    45.00000     0.33965    85.95725    45.00000     0.32841
    27.70000    90.00000    45.00000     0.33967    85.95865    45.00000     0.32843
    27.80000    90.00000    45.00000     0.33970    85.96004    45.00000     0.32845
    27.90000    90.00000    45.00000     0.33972    85.96143    45.00000     0.32847
    28.00000    90.00000    45.00000     0.33974    85.96283    45.00000     0.32850
    28.10000    90.00000    45.00000     0.33977    85.96422    45.00000     0.32852
    28.20000    90.00000    45.00000     0.33979    85.96561    45.00000     0.32854
    28.30000    90.00000    45.00000     0.33982    85.96701    45.00000     0.32856
    28.40000    90.00000    45.00000     0.33984    85.96840    45.00000     0.32859
    28.50000    90.00000    45.00000     0.33987    85.96979    45.00000     0.32861
    28.60000    90.00000    45.00000     0.33989    85.97118    45.00000     0.32863
    28.70000    90.00000    45.00000     0.33991    85.97257    45.00000     0.32865
    28.80000    90.00000    45.00000     0.33994    85.97396    45.00000     0.32868
    28.90000    90.00000    45.00000     0.33996    85.97535    45.00000     0.32870
    29.00000    90.00000    45.00000     0.33999    85.97674    45.00000     0.32872
    29.10000    90.00000    45.00000     0.34001    85.97813    45.00000     0.32875
    29.20000    90.00000    45.00000     0.34004    85.97952    45.00000     0.32877
    29.30000    90.00000    45.00000     0.34006    85.98091    45.00000     0.32879
    29.40000    90.00000    45.00000     0.34009    85.98229    45.00000     0.32881
    29.50000    90.00000    45.00000     0.34011    85.98368    45.00000     0.32884
    29.60000    90.00000    45.00000     0.34013    85.98507    45.00000     0.32886
    29.70000    90.00000    45.00000     0.34016    85.98646    45.00000     0.32888
    29.80000    90.00000    45.00000     0.34018    85.98784    45.00000     0.32890
    29.90000    90.00000    45.00000     0.34021    85.98923    45.00000     0.32893
    30.00000    90.00000    45.00000     0.34023    85.99061    45.00000     0.32895
    30.10000    90.00000    45.00000     0.34026    85.99200    45.00000     0.32897
    30.20000    90.00000    45.00000     0.34028    85.99338    45.00000     0.32899
    30.30000    90.00000    45.00000     0.34031    85.99477    45.00000     0.32902
    30.40000    90.00000    45.00000     0.34033    85.99615    45.00000     0.32904
    30.50000    90.00000    45.00000     0.34035    85.99753    45.00000     0.32906
    30.60000    90.00000    45.00000     0.34038    85.99891    45.00000     0.32909
    30.70000    90.00000    45.00000     0.34040    86.00030    45.00000     0.32911
    30.80000    90.00000    45.00000     0.34043    86.00168    45.00000     0.32913
    30.90000    90.00000    45.00000     0.34045    86.00306    45.00000     0.32915
    31.00000    90.00000    45.00000     0.34048    86.00444    45.00000     0.32918
    31.10000    90.00000    45.00000     0.34050    86.00582    45.00000     0.32920
    31.20000    90.00000    45.00000     0.34052    86.00720    45.00000     0.32922
    31.30000    90.00000    45.00000     0.34055    86.00858    45.00000     0.32924
    31.40000    90.00000    45.00000     0.34057    86.00996    45.00000     0.32927
    31.50000    90.00000    45.00000     0.34060    86.01134    45.00000     0.32929
    31.60000    90.00000    45.00000     0.34062    86.01272    45.00000     0.32931
    31.70000    90.00000    45.00000     0.34065    86.01410    45.00000     0.32934
    31.80000    90.00000    45.00000     0.34067    86.01548    45.00000     0.32936
    31.90000    90.00000    45.00000     0.34070    86.01685    45.00000     0.32938
    32.00000    90.00000    45.00000     0.34072    86.01823    45.00000     0.32940
    32.10000    90.00000    45.00000     0.34074    86.01961    45.00000     0.32943
    32.20000    90.00000    45.00000     0.34077    86.02098    45.00000     0.32945
    32.30000    90.00000    45.00000     0.34079    86.02236    45.00000     0.32947
    32.40000    90.00000    45.00000     0.34082    86.02373    45.00000     0.32950
    32.50000    90.00000    45.00000     0.34084    86.02511    45.00000     0.32952
    32.60000    90.00000    45.00000     0.34087    86.02648    45.00000     0.32954
    32.70000    90.00000    45.00000     0.34089    86.02786    45.00000     0.32956
    32.80000    90.00000    45.00000     0.34092    86.02923    45.00000     0.32959
    32.90000    90.00000    45.00000     0.34094    86.03060    45.00000     0.32961
    33.00000    90.00000    45.00000     0.34097    86.03198    45.00000     0.32963
    33.10000    90.00000    45.00000     0.34099    86.03335    45.00000     0.32965
    33.20000    90.00000    45.00000     0.34101    86.03472    45.00000     0.32968
    33.30000    90.00000    45.00000     0.34104    86.03609    45.00000     0.32970
    33.40000    90.00000    45.00000     0.34106    86.03746    45.00000     0.32972
    33.50000    90.00000    45.00000     0.34109    86.03883    45.00000     0.32975
    33.60000    90.00000    45.00000     0.34111    86.04020    45.00000     0.32977
    33.70000    90.00000    45.00000     0.34114    86.04157    45.00000     0.32979
    33.80000    90.00000    45.00000     0.34116    86.04294    45.00000     0.32981
    33.90000    90.00000    45.00000     0.34119    86.04431    45.00000     0.32984
    34.00000    90.00000    45.00000     0.34121    86.04568    45.00000     0.32986
    34.10000    90.00000    45.00000     0.34124    86.04705    45.00000     0.32988
    34.20000    90.00000    45.00000     0.34126    86.04842    45.00000     0.32991
    34.30000    90.00000    45.00000     0.34128    86.04979    45.00000     0.32993
    34.40000    90.00000    45.00000     0.34131    86.05115    45.00000     0.32995
    34.50000    90.00000    45.00000     0.34133    86.05252    45.00000     0.32997
    34.60000    90.00000    45.00000     0.34136    86.05389    45.00000     0.33000
    34.70000    90.00000    45.00000     0.34138    86.05525    45.00000     0.33002
    34.80000    90.00000    45.00000     0.34141    86.05662    45.00000     0.33004
    34.90000    90.00000    45.00000     0.34143    86.05798    45.00000     0.33007
    35.00000    90.00000    45.00000     0.34146    86.05935    45.00000     0.33009
    35.10000    90.00000    45.00000     0.34148    86.06071    45.00000     0.33011
    35.20000    90.00000    45.00000     0.34151    86.06207    45.00000     0.33013
    35.30000    90.00000    45.00000     0.34153    86.06344    45.00000     0.33016
    35.40000    90.00000    45.00000     0.34155    86.06480    45.00000     0.33018
    35.50000    90.00000    45.00000     0.34158    86.06616    45.00000     0.33020
    35.60000    90.00000    45.00000     0.34160    86.06753    45.00000     0.33023
    35.70000    90.00000    45.00000     0.34163    86.06889    45.00000     0.33025
    35.80000    90.00000    45.00000     0.34165    86.07025    45.00000     0.33027
    35.90000    90.00000    45.00000     0.34168    86.07161    45.00000     0.33029
    36.00000    90.00000    45.00000     0.34170    86.07297    45.00000     0.33032
    36.10000    90.00000    45.00000     0.34173    86.07433    45.00000     0.33034
    36.20000    90.00000    45.00000     0.34175    86.07569    45.00000     0.33036
    36.30000    90.00000    45.00000     0.34178    86.07705    45.00000     0.33039
    36.40000    90.00000    45.00000     0.34180    86.07841    45.00000     0.33041
    36.50000    90.00000    45.00000     0.34182    86.07977    45.00000     0.33043
    36.60000    90.00000    45.00000     0.34185    86.08113    45.00000     0.33045
    36.70000    90.00000    45.00000     0.34187    86.08248    45.00000     0.33048
    36.80000    90.00000    45.00000     0.34190    86.08384    45.00000     0.33050
    36.90000    90.00000    45.00000     0.34192    86.08520    45.00000     0.33052
    37.00000    90.00000    45.00000     0.34195    86.08655    45.00000     0.33055
    37.10000    90.00000    45.00000     0.34197    86.08791    45.00000     0.33057
    37.20000    90.00000    45.00000     0.34200    86.08927    45.00000     0.33059
    37.30000    90.00000    45.00000     0.34202    86.09062    45.00000     0.33062
    37.40000    90.00000    45.00000     0.34205    86.09198    45.00000     0.33064
    37.50000    90.00000    45.00000     0.34207    86.09333    45.00000     0.33066
    37.60000    90.00000    45.00000     0.34210    86.09468    45.00000     0.33068
    37.70000    90.00000    45.00000     0.34212    86.09604    45.00000     0.33071
    37.80000    90.00000    45.00000     0.34214    86.09739    45.00000     0.33073
    37.90000    90.00000    45.00000     0.34217    86.09874    45.00000     0.33075
    38.00000    90.00000    45.00000     0.34219    86.10010    45.00000     0.33078
    38.10000    90.00000    45.00000     0.34222    86.10145    45.00000     0.33080
    38.20000    90.00000    45.00000     0.34224    86.10280    45.00000     0.33082
    38.30000    90.00000    45.00000     0.34227    86.10415    45.00000     0.33084
    38.40000    90.00000    45.00000     0.34229    86.10550    45.00000     0.33087
    38.50000    90.00000    45.00000     0.34232    86.10685    45.00000     0.33089
    38.60000    90.00000    45.00000     0.34234    86.10820    45.00000     0.33091
    38.70000    90.00000    45.00000     0.34237    86.10955    45.00000     0.33094
    38.80000    90.00000    45.00000     0.34239    86.11090    45.00000     0.33096
    38.90000    90.00000    45.00000     0.34242    86.11225    45.00000     0.33098
    39.00000    90.00000    45.00000     0.34244    86.11360    45.00000     0.33101
    39.10000    90.00000    45.00000     0.34247    86.11495    45.00000     0.33103
    39.20000    90.00000    45.00000     0.34249    86.11629    45.00000     0.33105
    39.30000    90.00000    45.00000     0.34252    86.11764    45.00000     0.33107
    39.40000    90.00000    45.00000     0.34254    86.11899    45.00000     0.33110
    39.50000    90.00000    45.00000     0.34256    86.12034    45.00000     0.33112
    39.60000    90.00000    45.00000     0.34259    86.12168    45.00000     0.33114
    39.70000    90.00000    45.00000     0.34261    86.12303    45.00000     0.33117
    39.80000    90.00000    45.00000     0.34264    86.12437    45.00000     0.33119
    39.90000    90.00000    45.00000     0.34266    86.12572    45.00000     0.33121
    40.00000    90.00000    45.00000     0.34269    86.12706    45.00000     0.33124
