 # applied field (T), theta (degree), phi (degree), abs [muB/unitcell], abs [T]
       0.00000000       0.00000000       0.00000000      35.82268992       1.20573209
       0.10000000       0.28400974      45.00000000      35.82268388       1.20573188
       0.20000000       0.62467343      45.00000000      35.82266010       1.20573108
       0.30000000       0.90868405      45.00000000      35.82262719       1.20572998
       0.40000000       1.19269547      45.00000000      35.82258219       1.20572846
       0.50000000       1.53336228      45.00000000      35.82251089       1.20572606
       0.60000000       1.81737635      45.00000000      35.82243905       1.20572364
       0.70000000       2.10139203      45.00000000      35.82235514       1.20572082
       0.80000000       2.44206505      45.00000000      35.82223639       1.20571682
       0.90000000       2.72608515      45.00000000      35.82212570       1.20571310
       1.00000000       3.01010764      45.00000000      35.82200296       1.20570896
       1.10000000       3.35078999      45.00000000      35.82183688       1.20570337
       1.20000000       3.63481867      45.00000000      35.82168745       1.20569835
       1.30000000       3.97550925      45.00000000      35.82148883       1.20569166
       1.40000000       4.25954531      45.00000000      35.82131277       1.20568573
       1.50000000       4.54358512      45.00000000      35.82112475       1.20567941
       1.60000000       4.88429025      45.00000000      35.82087911       1.20567114
       1.70000000       5.16833921      45.00000000      35.82066460       1.20566392
       1.80000000       5.45239269      45.00000000      35.82043819       1.20565630
       1.90000000       5.79311546      45.00000000      35.82014577       1.20564645
       2.00000000       6.07717984      45.00000000      35.81989302       1.20563795
       2.10000000       6.36124953      45.00000000      35.81962844       1.20562904
       2.20000000       6.70199300      45.00000000      35.81928955       1.20561764
       2.30000000       6.98607532      45.00000000      35.81899882       1.20560785
       2.40000000       7.27016375      45.00000000      35.81869635       1.20559767
       2.50000000       7.61093096      45.00000000      35.81831133       1.20558471
       2.60000000       7.89503374      45.00000000      35.81798291       1.20557366
       2.70000000       8.23581907      45.00000000      35.81756630       1.20555963
       2.80000000       8.51993739      45.00000000      35.81721210       1.20554771
       2.90000000       8.80406313      45.00000000      35.81684633       1.20553540
       3.00000000       9.14487730      45.00000000      35.81638427       1.20551985
       3.10000000       9.42902029      45.00000000      35.81599297       1.20550668
       3.20000000       9.71317145      45.00000000      35.81559024       1.20549312
       3.30000000      10.05401746      45.00000000      35.81508319       1.20547606
       3.40000000      10.33818757      45.00000000      35.81465520       1.20546165
       3.50000000      10.67905723      45.00000000      35.81411742       1.20544355
       3.60000000      10.96324743      45.00000000      35.81366438       1.20542830
       3.70000000      11.24744709      45.00000000      35.81320013       1.20541268
       3.80000000      11.58835359      45.00000000      35.81261826       1.20539309
       3.90000000      11.87257501      45.00000000      35.81212929       1.20537663
       4.00000000      12.15680664      45.00000000      35.81162926       1.20535980
       4.10000000      12.49775289      45.00000000      35.81100388       1.20533875
       4.20000000      12.78200793      45.00000000      35.81047948       1.20532110
       4.30000000      13.12298323      45.00000000      35.80982446       1.20529906
       4.40000000      13.40726280      45.00000000      35.80927592       1.20528059
       4.50000000      13.69155383      45.00000000      35.80871662       1.20526177
       4.60000000      14.03257374      45.00000000      35.80801917       1.20523829
       4.70000000      14.31689091      45.00000000      35.80743613       1.20521867
       4.80000000      14.65794318      45.00000000      35.80670984       1.20519422
       4.90000000      14.94228761      45.00000000      35.80610334       1.20517381
       5.00000000      15.22664471      45.00000000      35.80548638       1.20515304
       5.10000000      15.56774633      45.00000000      35.80471888       1.20512721
       5.20000000      15.85213226      45.00000000      35.80407890       1.20510567
       5.30000000      16.19326948      45.00000000      35.80328342       1.20507890
       5.40000000      16.47768531      45.00000000      35.80262071       1.20505659
       5.50000000      16.81885943      45.00000000      35.80179763       1.20502889
       5.60000000      17.10330622      45.00000000      35.80111253       1.20500583
       5.70000000      17.38776735      45.00000000      35.80041747       1.20498243
       5.80000000      17.72899732      45.00000000      35.79955508       1.20495341
       5.90000000      18.01349094      45.00000000      35.79883810       1.20492927
       6.00000000      18.35476092      45.00000000      35.79794909       1.20489935
       6.10000000      18.63928806      45.00000000      35.79721055       1.20487449
       6.20000000      18.98059930      45.00000000      35.79629535       1.20484369
       6.30000000      19.26516097      45.00000000      35.79553559       1.20481812
       6.40000000      19.60651471      45.00000000      35.79459463       1.20478645
       6.50000000      19.89111193      45.00000000      35.79381402       1.20476017
       6.60000000      20.17572554      45.00000000      35.79302417       1.20473359
       6.70000000      20.51714312      45.00000000      35.79204668       1.20470069
       6.80000000      20.80179371      45.00000000      35.79123653       1.20467342
       6.90000000      21.14325674      45.00000000      35.79023440       1.20463969
       7.00000000      21.42794529      45.00000000      35.78940435       1.20461175
       7.10000000      21.76945493      45.00000000      35.78837806       1.20457721
       7.20000000      22.05418239      45.00000000      35.78752850       1.20454861
       7.30000000      22.39573980      45.00000000      35.78647854       1.20451327
       7.40000000      22.68050712      45.00000000      35.78560988       1.20448403
       7.50000000      23.02211344      45.00000000      35.78453674       1.20444791
       7.60000000      23.30692154      45.00000000      35.78364941       1.20441805
       7.70000000      23.64857789      45.00000000      35.78255361       1.20438117
       7.80000000      23.93342769      45.00000000      35.78164803       1.20435068
       7.90000000      24.27513517      45.00000000      35.78053008       1.20431306
       8.00000000      24.56002757      45.00000000      35.77960668       1.20428198
       8.10000000      24.90178725      45.00000000      35.77846712       1.20424362
       8.20000000      25.18672312      45.00000000      35.77752636       1.20421196
       8.30000000      25.52853608      45.00000000      35.77636573       1.20417289
       8.40000000      25.87037869      45.00000000      35.77519371       1.20413344
       8.50000000      26.15538356      45.00000000      35.77422691       1.20410090
       8.60000000      26.49728104      45.00000000      35.77303468       1.20406077
       8.70000000      26.78233156      45.00000000      35.77205168       1.20402769
       8.80000000      27.12428492      45.00000000      35.77083981       1.20398690
       8.90000000      27.40938190      45.00000000      35.76984109       1.20395328
       9.00000000      27.75139214      45.00000000      35.76861015       1.20391185
       9.10000000      28.09343396      45.00000000      35.76736893       1.20387007
       9.20000000      28.37860445      45.00000000      35.76634678       1.20383567
       9.30000000      28.72070464      45.00000000      35.76508740       1.20379328
       9.40000000      29.00592359      45.00000000      35.76405077       1.20375839
       9.50000000      29.34808306      45.00000000      35.76277384       1.20371541
       9.60000000      29.69027544      45.00000000      35.76148747       1.20367211
       9.70000000      29.97557091      45.00000000      35.76042937       1.20363650
       9.80000000      30.31782397      45.00000000      35.75912639       1.20359264
       9.90000000      30.66011068      45.00000000      35.75781450       1.20354849
      10.00000000      30.94548441      45.00000000      35.75673614       1.20351219
      10.10000000      31.28783315      45.00000000      35.75540861       1.20346751
      10.20000000      31.63021626      45.00000000      35.75407269       1.20342254
      10.30000000      31.91566992      45.00000000      35.75297534       1.20338561
      10.40000000      32.25811633      45.00000000      35.75162477       1.20334015
      10.50000000      32.60059781      45.00000000      35.75026636       1.20329443
      10.60000000      32.88613298      45.00000000      35.74915129       1.20325690
      10.70000000      33.22867899      45.00000000      35.74777923       1.20321072
      10.80000000      33.57126072      45.00000000      35.74639989       1.20316429
      10.90000000      33.91387839      45.00000000      35.74501346       1.20311763
      11.00000000      34.19952633      45.00000000      35.74387645       1.20307936
      11.10000000      34.54221010      45.00000000      35.74247777       1.20303228
      11.20000000      34.88493041      45.00000000      35.74107257       1.20298498
      11.30000000      35.22768749      45.00000000      35.73966105       1.20293747
      11.40000000      35.57048152      45.00000000      35.73824343       1.20288976
      11.50000000      35.85627538      45.00000000      35.73708218       1.20285067
      11.60000000      36.19913731      45.00000000      35.73565410       1.20280261
      11.70000000      36.54203675      45.00000000      35.73422049       1.20275435
      11.80000000      36.88497389      45.00000000      35.73278156       1.20270592
      11.90000000      37.22794892      45.00000000      35.73133753       1.20265732
      12.00000000      37.57096200      45.00000000      35.72988860       1.20260855
      12.10000000      37.85693689      45.00000000      35.72870338       1.20256866
      12.20000000      38.20001977      45.00000000      35.72724622       1.20251961
      12.30000000      38.54314119      45.00000000      35.72578477       1.20247042
      12.40000000      38.88630130      45.00000000      35.72431923       1.20242109
      12.50000000      39.22950025      45.00000000      35.72284982       1.20237164
      12.60000000      39.57273819      45.00000000      35.72137676       1.20232205
      12.70000000      39.91601526      45.00000000      35.71990027       1.20227236
      12.80000000      40.25933162      45.00000000      35.71842055       1.20222255
      12.90000000      40.60268737      45.00000000      35.71693784       1.20217265
      13.00000000      40.94608267      45.00000000      35.71545235       1.20212265
      13.10000000      41.28951762      45.00000000      35.71396430       1.20207256
      13.20000000      41.63299235      45.00000000      35.71247391       1.20202240
      13.30000000      41.97650697      45.00000000      35.71098141       1.20197216
      13.40000000      42.32006159      45.00000000      35.70948701       1.20192187
      13.50000000      42.72083075      45.00000000      35.70771284       1.20186215
      13.60000000      43.06447284      45.00000000      35.70621492       1.20181173
      13.70000000      43.40815523      45.00000000      35.70471581       1.20176127
      13.80000000      43.75187802      45.00000000      35.70321575       1.20171078
      13.90000000      44.09564128      45.00000000      35.70171495       1.20166027
      14.00000000      44.43944507      45.00000000      35.70021366       1.20160974
      14.10000000      44.84050853      45.00000000      35.69843205       1.20154977
      14.20000000      45.18440088      45.00000000      35.69693026       1.20149923
      14.30000000      45.52833398      45.00000000      35.69542868       1.20144869
      14.40000000      45.92955008      45.00000000      35.69364709       1.20138872
      14.50000000      46.27357211      45.00000000      35.69214661       1.20133822
      14.60000000      46.61763502      45.00000000      35.69064707       1.20128774
      14.70000000      47.01900434      45.00000000      35.68886821       1.20122787
      14.80000000      47.36315643      45.00000000      35.68737135       1.20117749
      14.90000000      47.70734948      45.00000000      35.68587617       1.20112716
      15.00000000      48.10887235      45.00000000      35.68410276       1.20106747
      15.10000000      48.45315470      45.00000000      35.68261186       1.20101729
      15.20000000      48.85478291      45.00000000      35.68084370       1.20095778
      15.30000000      49.25646813      45.00000000      35.67907881       1.20089838
      15.40000000      49.60088809      45.00000000      35.67759655       1.20084849
      15.50000000      50.00267859      45.00000000      35.67583891       1.20078933
      15.60000000      50.34718773      45.00000000      35.67436372       1.20073967
      15.70000000      50.74908339      45.00000000      35.67261460       1.20068080
      15.80000000      51.15103588      45.00000000      35.67087053       1.20062210
      15.90000000      51.55304514      45.00000000      35.66913189       1.20056358
      16.00000000      51.95511108      45.00000000      35.66739904       1.20050525
      16.10000000      52.29985328      45.00000000      35.66594738       1.20045639
      16.20000000      52.70202365      45.00000000      35.66422647       1.20039847
      16.30000000      53.10425039      45.00000000      35.66251245       1.20034078
      16.40000000      53.50653337      45.00000000      35.66080569       1.20028333
      16.50000000      53.90887244      45.00000000      35.65910657       1.20022614
      16.60000000      54.31126744      45.00000000      35.65741548       1.20016922
      16.70000000      54.71371821      45.00000000      35.65573278       1.20011259
      16.80000000      55.17366498      45.00000000      35.65379063       1.20004722
      16.90000000      55.57623520      45.00000000      35.65212706       1.19999122
      17.00000000      55.97886054      45.00000000      35.65047309       1.19993555
      17.10000000      56.43900794      45.00000000      35.64856475       1.19987132
      17.20000000      56.84175125      45.00000000      35.64693245       1.19981638
      17.30000000      57.24454893      45.00000000      35.64531093       1.19976181
      17.40000000      57.70489427      45.00000000      35.64344068       1.19969886
      17.50000000      58.16531129      45.00000000      35.64158524       1.19963640
      17.60000000      58.56828687      45.00000000      35.64000149       1.19958310
      17.70000000      59.02883642      45.00000000      35.63817547       1.19952164
      17.80000000      59.48945631      45.00000000      35.63636586       1.19946073
      17.90000000      59.95014602      45.00000000      35.63457324       1.19940039
      18.00000000      60.41090502      45.00000000      35.63279815       1.19934065
      18.10000000      60.87173275      45.00000000      35.63104115       1.19928151
      18.20000000      61.33262862      45.00000000      35.62930279       1.19922300
      18.30000000      61.79359200      45.00000000      35.62758362       1.19916513
      18.40000000      62.31220888      45.00000000      35.62564493       1.19909988
      18.50000000      62.77331428      45.00000000      35.62396823       1.19904345
      18.60000000      63.29209066      45.00000000      35.62207842       1.19897984
      18.70000000      63.81095041      45.00000000      35.62021555       1.19891714
      18.80000000      64.27226723      45.00000000      35.61860846       1.19886304
      18.90000000      64.79128083      45.00000000      35.61679864       1.19880213
      19.00000000      65.36801907      45.00000000      35.61479611       1.19873473
      19.10000000      65.88720132      45.00000000      35.61304852       1.19867591
      19.20000000      66.40646125      45.00000000      35.61133161       1.19861812
      19.30000000      66.98347100      45.00000000      35.60943465       1.19855427
      19.40000000      67.56057492      45.00000000      35.60757721       1.19849175
      19.50000000      68.13777117      45.00000000      35.60576028       1.19843060
      19.60000000      68.71505786      45.00000000      35.60398481       1.19837084
      19.70000000      69.35014658      45.00000000      35.60205688       1.19830595
      19.80000000      69.98534129      45.00000000      35.60018130       1.19824282
      19.90000000      70.62063922      45.00000000      35.59835931       1.19818149
      20.00000000      71.25603752      45.00000000      35.59659211       1.19812201
      20.10000000      71.94928724      45.00000000      35.59470598       1.19805853
      20.20000000      72.64265061      45.00000000      35.59288774       1.19799733
      20.30000000      73.39389828      45.00000000      35.59097584       1.19793298
      20.40000000      74.14527094      45.00000000      35.58914696       1.19787142
      20.50000000      74.95455863      45.00000000      35.58725319       1.19780768
      20.60000000      75.82178594      45.00000000      35.58531768       1.19774253
      20.70000000      76.68915909      45.00000000      35.58349958       1.19768134
      20.80000000      77.61449583      45.00000000      35.58167560       1.19761995
      20.90000000      78.65565322      45.00000000      35.57975824       1.19755541
      21.00000000      79.75483042      45.00000000      35.57791461       1.19749336
      21.10000000      81.02775622      45.00000000      35.57599401       1.19742871
      21.20000000      82.47449564      45.00000000      35.57411407       1.19736544
      21.30000000      84.26873646      45.00000000      35.57222945       1.19730200
      21.40000000      86.98947954      45.00000000      35.57033288       1.19723817
      21.50000000      90.00000000      45.00000000      35.56976594       1.19721909
      21.60000000      90.00000000      45.00000000      35.57002276       1.19722773
      21.70000000      90.00000000      45.00000000      35.57027956       1.19723637
      21.80000000      90.00000000      45.00000000      35.57053634       1.19724502
      21.90000000      90.00000000      45.00000000      35.57079309       1.19725366
      22.00000000      90.00000000      45.00000000      35.57104983       1.19726230
      22.10000000      90.00000000      45.00000000      35.57130654       1.19727094
      22.20000000      90.00000000      45.00000000      35.57156324       1.19727958
      22.30000000      90.00000000      45.00000000      35.57181991       1.19728822
      22.40000000      90.00000000      45.00000000      35.57207655       1.19729686
      22.50000000      90.00000000      45.00000000      35.57233318       1.19730550
      22.60000000      90.00000000      45.00000000      35.57258979       1.19731413
      22.70000000      90.00000000      45.00000000      35.57284637       1.19732277
      22.80000000      90.00000000      45.00000000      35.57310293       1.19733140
      22.90000000      90.00000000      45.00000000      35.57335948       1.19734004
      23.00000000      90.00000000      45.00000000      35.57361600       1.19734867
      23.10000000      90.00000000      45.00000000      35.57387249       1.19735731
      23.20000000      90.00000000      45.00000000      35.57412897       1.19736594
      23.30000000      90.00000000      45.00000000      35.57438543       1.19737457
      23.40000000      90.00000000      45.00000000      35.57464186       1.19738320
      23.50000000      90.00000000      45.00000000      35.57489827       1.19739183
      23.60000000      90.00000000      45.00000000      35.57515466       1.19740046
      23.70000000      90.00000000      45.00000000      35.57541103       1.19740909
      23.80000000      90.00000000      45.00000000      35.57566738       1.19741772
      23.90000000      90.00000000      45.00000000      35.57592370       1.19742635
      24.00000000      90.00000000      45.00000000      35.57618001       1.19743497
      24.10000000      90.00000000      45.00000000      35.57643629       1.19744360
      24.20000000      90.00000000      45.00000000      35.57669255       1.19745222
      24.30000000      90.00000000      45.00000000      35.57694880       1.19746085
      24.40000000      90.00000000      45.00000000      35.57720501       1.19746947
      24.50000000      90.00000000      45.00000000      35.57746121       1.19747810
      24.60000000      90.00000000      45.00000000      35.57771739       1.19748672
      24.70000000      90.00000000      45.00000000      35.57797354       1.19749534
      24.80000000      90.00000000      45.00000000      35.57822968       1.19750396
      24.90000000      90.00000000      45.00000000      35.57848579       1.19751258
      25.00000000      90.00000000      45.00000000      35.57874188       1.19752120
      25.10000000      90.00000000      45.00000000      35.57899795       1.19752982
      25.20000000      90.00000000      45.00000000      35.57925400       1.19753844
      25.30000000      90.00000000      45.00000000      35.57951002       1.19754706
      25.40000000      90.00000000      45.00000000      35.57976603       1.19755567
      25.50000000      90.00000000      45.00000000      35.58002201       1.19756429
      25.60000000      90.00000000      45.00000000      35.58027798       1.19757290
      25.70000000      90.00000000      45.00000000      35.58053392       1.19758152
      25.80000000      90.00000000      45.00000000      35.58078984       1.19759013
      25.90000000      90.00000000      45.00000000      35.58104574       1.19759875
      26.00000000      90.00000000      45.00000000      35.58130161       1.19760736
      26.10000000      90.00000000      45.00000000      35.58155747       1.19761597
      26.20000000      90.00000000      45.00000000      35.58181330       1.19762458
      26.30000000      90.00000000      45.00000000      35.58206912       1.19763319
      26.40000000      90.00000000      45.00000000      35.58232491       1.19764180
      26.50000000      90.00000000      45.00000000      35.58258068       1.19765041
      26.60000000      90.00000000      45.00000000      35.58283643       1.19765902
      26.70000000      90.00000000      45.00000000      35.58309216       1.19766762
      26.80000000      90.00000000      45.00000000      35.58334787       1.19767623
      26.90000000      90.00000000      45.00000000      35.58360355       1.19768484
      27.00000000      90.00000000      45.00000000      35.58385922       1.19769344
      27.10000000      90.00000000      45.00000000      35.58411486       1.19770205
      27.20000000      90.00000000      45.00000000      35.58437048       1.19771065
      27.30000000      90.00000000      45.00000000      35.58462609       1.19771925
      27.40000000      90.00000000      45.00000000      35.58488167       1.19772786
      27.50000000      90.00000000      45.00000000      35.58513722       1.19773646
      27.60000000      90.00000000      45.00000000      35.58539276       1.19774506
      27.70000000      90.00000000      45.00000000      35.58564828       1.19775366
      27.80000000      90.00000000      45.00000000      35.58590377       1.19776226
      27.90000000      90.00000000      45.00000000      35.58615925       1.19777086
      28.00000000      90.00000000      45.00000000      35.58641470       1.19777946
      28.10000000      90.00000000      45.00000000      35.58667013       1.19778805
      28.20000000      90.00000000      45.00000000      35.58692554       1.19779665
      28.30000000      90.00000000      45.00000000      35.58718093       1.19780525
      28.40000000      90.00000000      45.00000000      35.58743630       1.19781384
      28.50000000      90.00000000      45.00000000      35.58769165       1.19782244
      28.60000000      90.00000000      45.00000000      35.58794698       1.19783103
      28.70000000      90.00000000      45.00000000      35.58820228       1.19783962
      28.80000000      90.00000000      45.00000000      35.58845757       1.19784822
      28.90000000      90.00000000      45.00000000      35.58871283       1.19785681
      29.00000000      90.00000000      45.00000000      35.58896807       1.19786540
      29.10000000      90.00000000      45.00000000      35.58922329       1.19787399
      29.20000000      90.00000000      45.00000000      35.58947849       1.19788258
      29.30000000      90.00000000      45.00000000      35.58973367       1.19789117
      29.40000000      90.00000000      45.00000000      35.58998883       1.19789976
      29.50000000      90.00000000      45.00000000      35.59024397       1.19790834
      29.60000000      90.00000000      45.00000000      35.59049908       1.19791693
      29.70000000      90.00000000      45.00000000      35.59075418       1.19792552
      29.80000000      90.00000000      45.00000000      35.59100925       1.19793410
      29.90000000      90.00000000      45.00000000      35.59126431       1.19794269
      30.00000000      90.00000000      45.00000000      35.59151934       1.19795127
      30.10000000      90.00000000      45.00000000      35.59177435       1.19795985
      30.20000000      90.00000000      45.00000000      35.59202934       1.19796844
      30.30000000      90.00000000      45.00000000      35.59228431       1.19797702
      30.40000000      90.00000000      45.00000000      35.59253926       1.19798560
      30.50000000      90.00000000      45.00000000      35.59279418       1.19799418
      30.60000000      90.00000000      45.00000000      35.59304909       1.19800276
      30.70000000      90.00000000      45.00000000      35.59330398       1.19801134
      30.80000000      90.00000000      45.00000000      35.59355884       1.19801992
      30.90000000      90.00000000      45.00000000      35.59381368       1.19802849
      31.00000000      90.00000000      45.00000000      35.59406851       1.19803707
      31.10000000      90.00000000      45.00000000      35.59432331       1.19804565
      31.20000000      90.00000000      45.00000000      35.59457809       1.19805422
      31.30000000      90.00000000      45.00000000      35.59483285       1.19806280
      31.40000000      90.00000000      45.00000000      35.59508759       1.19807137
      31.50000000      90.00000000      45.00000000      35.59534231       1.19807994
      31.60000000      90.00000000      45.00000000      35.59559700       1.19808852
      31.70000000      90.00000000      45.00000000      35.59585168       1.19809709
      31.80000000      90.00000000      45.00000000      35.59610634       1.19810566
      31.90000000      90.00000000      45.00000000      35.59636097       1.19811423
      32.00000000      90.00000000      45.00000000      35.59661558       1.19812280
      32.10000000      90.00000000      45.00000000      35.59687018       1.19813137
      32.20000000      90.00000000      45.00000000      35.59712475       1.19813994
      32.30000000      90.00000000      45.00000000      35.59737930       1.19814851
      32.40000000      90.00000000      45.00000000      35.59763383       1.19815707
      32.50000000      90.00000000      45.00000000      35.59788834       1.19816564
      32.60000000      90.00000000      45.00000000      35.59814283       1.19817421
      32.70000000      90.00000000      45.00000000      35.59839730       1.19818277
      32.80000000      90.00000000      45.00000000      35.59865175       1.19819133
      32.90000000      90.00000000      45.00000000      35.59890618       1.19819990
      33.00000000      90.00000000      45.00000000      35.59916058       1.19820846
      33.10000000      90.00000000      45.00000000      35.59941497       1.19821702
      33.20000000      90.00000000      45.00000000      35.59966933       1.19822558
      33.30000000      90.00000000      45.00000000      35.59992368       1.19823415
      33.40000000      90.00000000      45.00000000      35.60017800       1.19824271
      33.50000000      90.00000000      45.00000000      35.60043230       1.19825127
      33.60000000      90.00000000      45.00000000      35.60068658       1.19825982
      33.70000000      90.00000000      45.00000000      35.60094084       1.19826838
      33.80000000      90.00000000      45.00000000      35.60119508       1.19827694
      33.90000000      90.00000000      45.00000000      35.60144930       1.19828550
      34.00000000      90.00000000      45.00000000      35.60170350       1.19829405
      34.10000000      90.00000000      45.00000000      35.60195768       1.19830261
      34.20000000      90.00000000      45.00000000      35.60221184       1.19831116
      34.30000000      90.00000000      45.00000000      35.60246598       1.19831972
      34.40000000      90.00000000      45.00000000      35.60272009       1.19832827
      34.50000000      90.00000000      45.00000000      35.60297419       1.19833682
      34.60000000      90.00000000      45.00000000      35.60322826       1.19834537
      34.70000000      90.00000000      45.00000000      35.60348232       1.19835392
      34.80000000      90.00000000      45.00000000      35.60373635       1.19836247
      34.90000000      90.00000000      45.00000000      35.60399037       1.19837102
      35.00000000      90.00000000      45.00000000      35.60424436       1.19837957
      35.10000000      90.00000000      45.00000000      35.60449833       1.19838812
      35.20000000      90.00000000      45.00000000      35.60475228       1.19839667
      35.30000000      90.00000000      45.00000000      35.60500621       1.19840522
      35.40000000      90.00000000      45.00000000      35.60526012       1.19841376
      35.50000000      90.00000000      45.00000000      35.60551401       1.19842231
      35.60000000      90.00000000      45.00000000      35.60576788       1.19843085
      35.70000000      90.00000000      45.00000000      35.60602173       1.19843940
      35.80000000      90.00000000      45.00000000      35.60627556       1.19844794
      35.90000000      90.00000000      45.00000000      35.60652937       1.19845648
      36.00000000      90.00000000      45.00000000      35.60678316       1.19846502
      36.10000000      90.00000000      45.00000000      35.60703692       1.19847357
      36.20000000      90.00000000      45.00000000      35.60729067       1.19848211
      36.30000000      90.00000000      45.00000000      35.60754440       1.19849065
      36.40000000      90.00000000      45.00000000      35.60779810       1.19849919
      36.50000000      90.00000000      45.00000000      35.60805179       1.19850772
      36.60000000      90.00000000      45.00000000      35.60830545       1.19851626
      36.70000000      90.00000000      45.00000000      35.60855909       1.19852480
      36.80000000      90.00000000      45.00000000      35.60881272       1.19853334
      36.90000000      90.00000000      45.00000000      35.60906632       1.19854187
      37.00000000      90.00000000      45.00000000      35.60931990       1.19855041
      37.10000000      90.00000000      45.00000000      35.60957346       1.19855894
      37.20000000      90.00000000      45.00000000      35.60982701       1.19856748
      37.30000000      90.00000000      45.00000000      35.61008053       1.19857601
      37.40000000      90.00000000      45.00000000      35.61033403       1.19858454
      37.50000000      90.00000000      45.00000000      35.61058751       1.19859307
      37.60000000      90.00000000      45.00000000      35.61084097       1.19860160
      37.70000000      90.00000000      45.00000000      35.61109441       1.19861013
      37.80000000      90.00000000      45.00000000      35.61134783       1.19861866
      37.90000000      90.00000000      45.00000000      35.61160123       1.19862719
      38.00000000      90.00000000      45.00000000      35.61185461       1.19863572
      38.10000000      90.00000000      45.00000000      35.61210796       1.19864425
      38.20000000      90.00000000      45.00000000      35.61236130       1.19865278
      38.30000000      90.00000000      45.00000000      35.61261462       1.19866130
      38.40000000      90.00000000      45.00000000      35.61286792       1.19866983
      38.50000000      90.00000000      45.00000000      35.61312119       1.19867835
      38.60000000      90.00000000      45.00000000      35.61337445       1.19868688
      38.70000000      90.00000000      45.00000000      35.61362769       1.19869540
      38.80000000      90.00000000      45.00000000      35.61388090       1.19870392
      38.90000000      90.00000000      45.00000000      35.61413410       1.19871244
      39.00000000      90.00000000      45.00000000      35.61438727       1.19872097
      39.10000000      90.00000000      45.00000000      35.61464043       1.19872949
      39.20000000      90.00000000      45.00000000      35.61489356       1.19873801
      39.30000000      90.00000000      45.00000000      35.61514668       1.19874653
      39.40000000      90.00000000      45.00000000      35.61539977       1.19875505
      39.50000000      90.00000000      45.00000000      35.61565285       1.19876356
      39.60000000      90.00000000      45.00000000      35.61590590       1.19877208
      39.70000000      90.00000000      45.00000000      35.61615894       1.19878060
      39.80000000      90.00000000      45.00000000      35.61641195       1.19878911
      39.90000000      90.00000000      45.00000000      35.61666494       1.19879763
      40.00000000      90.00000000      45.00000000      35.61691792       1.19880614
