 # applied field (T), theta (degree), phi (degree), abs [muB/unitcell], abs [T]
       0.00000000       0.00000000       0.00000000      42.80474593       1.47288738
       0.10000000       0.74241003     360.00000000      42.80471785       1.47288642
       0.20000000       1.48482276     360.00000000      42.80463363       1.47288352
       0.30000000       2.22724086     360.00000000      42.80449335       1.47287869
       0.40000000       2.96966698     360.00000000      42.80429715       1.47287194
       0.50000000       3.71210373     360.00000000      42.80404520       1.47286327
       0.60000000       4.39748875     360.00000000      42.80376478       1.47285362
       0.70000000       5.13995315     360.00000000      42.80340660       1.47284130
       0.80000000       5.88243566     360.00000000      42.80299353       1.47282708
       0.90000000       6.62493878     360.00000000      42.80252599       1.47281100
       1.00000000       7.36746500     360.00000000      42.80200444       1.47279305
       1.10000000       8.11001677     360.00000000      42.80142940       1.47277326
       1.20000000       8.90967254     360.00000000      42.80074807       1.47274982
       1.30000000       9.65228518     360.00000000      42.80006357       1.47272626
       1.40000000      10.39493073     360.00000000      42.79932749       1.47270094
       1.50000000      11.13761151     360.00000000      42.79854055       1.47267386
       1.60000000      11.88032976     360.00000000      42.79770354       1.47264506
       1.70000000      12.68017843     360.00000000      42.79674298       1.47261201
       1.80000000      13.42298167     360.00000000      42.79580440       1.47257971
       1.90000000      14.16582903     360.00000000      42.79481841       1.47254578
       2.00000000      14.96582439     360.00000000      42.79369983       1.47250729
       2.10000000      15.76587609     360.00000000      42.79252814       1.47246697
       2.20000000      16.50887605     360.00000000      42.79139864       1.47242811
       2.30000000      17.30904297     360.00000000      42.79012849       1.47238440
       2.40000000      18.10927305     360.00000000      42.78880920       1.47233901
       2.50000000      18.90956841     360.00000000      42.78744225       1.47229197
       2.60000000      19.65280165     360.00000000      42.78613743       1.47224707
       2.70000000      20.51036308     360.00000000      42.78457145       1.47219319
       2.80000000      21.31086617     360.00000000      42.78307077       1.47214155
       2.90000000      22.11144213     360.00000000      42.78152873       1.47208849
       3.00000000      22.91209258     360.00000000      42.77994704       1.47203407
       3.10000000      23.76997619     360.00000000      42.77820328       1.47197406
       3.20000000      24.57078588     360.00000000      42.77654472       1.47191699
       3.30000000      25.42884369     360.00000000      42.77472223       1.47185428
       3.40000000      26.28699395     360.00000000      42.77286217       1.47179028
       3.50000000      27.14523798     360.00000000      42.77096683       1.47172506
       3.60000000      28.00357694     360.00000000      42.76903853       1.47165871
       3.70000000      28.91920795     360.00000000      42.76694010       1.47158650
       3.80000000      29.77774647     360.00000000      42.76495094       1.47151806
       3.90000000      30.69359274     360.00000000      42.76279260       1.47144379
       4.00000000      31.60955137     360.00000000      42.76060754       1.47136860
       4.10000000      32.52562291     360.00000000      42.75839874       1.47129260
       4.20000000      33.44180769     360.00000000      42.75616920       1.47121588
       4.30000000      34.41534602     360.00000000      42.75377224       1.47113341
       4.40000000      35.38901304     360.00000000      42.75135843       1.47105035
       4.50000000      36.36280857     360.00000000      42.74893138       1.47096683
       4.60000000      37.33673216     360.00000000      42.74649473       1.47088299
       4.70000000      38.36805532     360.00000000      42.74389927       1.47079368
       4.80000000      39.39952115     360.00000000      42.74130094       1.47070428
       4.90000000      40.43112849     360.00000000      42.73870399       1.47061492
       5.00000000      41.52017309     360.00000000      42.73595977       1.47052049
       5.10000000      42.60937270     360.00000000      42.73322625       1.47042643
       5.20000000      43.75603971     360.00000000      42.73035668       1.47032769
       5.30000000      44.90287420     360.00000000      42.72750941       1.47022972
       5.40000000      46.04987316     360.00000000      42.72468982       1.47013270
       5.50000000      47.25437399     360.00000000      42.72175566       1.47003173
       5.60000000      48.51639917     360.00000000      42.71871782       1.46992720
       5.70000000      49.77861194     360.00000000      42.71573201       1.46982446
       5.80000000      51.09837475     360.00000000      42.71266404       1.46971890
       5.90000000      52.47570845     360.00000000      42.70952889       1.46961102
       6.00000000      53.91063306     360.00000000      42.70634325       1.46950140
       6.10000000      55.34577209     360.00000000      42.70325521       1.46939514
       6.20000000      56.89592471     360.00000000      42.70002101       1.46928386
       6.30000000      58.56113446     360.00000000      42.69667575       1.46916875
       6.40000000      60.28401968     360.00000000      42.69337367       1.46905512
       6.50000000      62.06459112     360.00000000      42.69014040       1.46894387
       6.60000000      64.01773912     360.00000000      42.68679933       1.46882891
       6.70000000      66.14352089     360.00000000      42.68342233       1.46871270
       6.80000000      68.49944609     360.00000000      42.68000469       1.46859511
       6.90000000      71.14304929     360.00000000      42.67658870       1.46847756
       7.00000000      74.18936004     360.00000000      42.67321165       1.46836136
       7.10000000      78.04087752     360.00000000      42.66979666       1.46824385
       7.20000000      83.96268019     360.00000000      42.66640986       1.46812732
       7.30000000      90.00000000     360.00000000      42.66542425       1.46809340
       7.40000000      90.00000000     360.00000000      42.66567961       1.46810219
       7.50000000      90.00000000     360.00000000      42.66593494       1.46811097
       7.60000000      90.00000000     360.00000000      42.66619025       1.46811976
       7.70000000      90.00000000     360.00000000      42.66644554       1.46812854
       7.80000000      90.00000000     360.00000000      42.66670081       1.46813733
       7.90000000      90.00000000     360.00000000      42.66695605       1.46814611
       8.00000000      90.00000000     360.00000000      42.66721127       1.46815489
       8.10000000      90.00000000     360.00000000      42.66746647       1.46816367
       8.20000000      90.00000000     360.00000000      42.66772165       1.46817245
       8.30000000      90.00000000     360.00000000      42.66797680       1.46818123
       8.40000000      90.00000000     360.00000000      42.66823193       1.46819001
       8.50000000      90.00000000     360.00000000      42.66848704       1.46819879
       8.60000000      90.00000000     360.00000000      42.66874212       1.46820757
       8.70000000      90.00000000     360.00000000      42.66899718       1.46821634
       8.80000000      90.00000000     360.00000000      42.66925221       1.46822512
       8.90000000      90.00000000     360.00000000      42.66950723       1.46823389
       9.00000000      90.00000000     360.00000000      42.66976222       1.46824267
       9.10000000      90.00000000     360.00000000      42.67001718       1.46825144
       9.20000000      90.00000000     360.00000000      42.67027212       1.46826021
       9.30000000      90.00000000     360.00000000      42.67052704       1.46826899
       9.40000000      90.00000000     360.00000000      42.67078193       1.46827776
       9.50000000      90.00000000     360.00000000      42.67103680       1.46828653
       9.60000000      90.00000000     360.00000000      42.67129165       1.46829529
       9.70000000      90.00000000     360.00000000      42.67154647       1.46830406
       9.80000000      90.00000000     360.00000000      42.67180127       1.46831283
       9.90000000      90.00000000     360.00000000      42.67205604       1.46832160
      10.00000000      90.00000000     360.00000000      42.67231079       1.46833036
      10.10000000      90.00000000     360.00000000      42.67256551       1.46833913
      10.20000000      90.00000000     360.00000000      42.67282021       1.46834789
      10.30000000      90.00000000     360.00000000      42.67307488       1.46835665
      10.40000000      90.00000000     360.00000000      42.67332953       1.46836542
      10.50000000      90.00000000     360.00000000      42.67358416       1.46837418
      10.60000000      90.00000000     360.00000000      42.67383876       1.46838294
      10.70000000      90.00000000     360.00000000      42.67409334       1.46839170
      10.80000000      90.00000000     360.00000000      42.67434789       1.46840046
      10.90000000      90.00000000     360.00000000      42.67460242       1.46840922
      11.00000000      90.00000000     360.00000000      42.67485692       1.46841797
      11.10000000      90.00000000     360.00000000      42.67511139       1.46842673
      11.20000000      90.00000000     360.00000000      42.67536585       1.46843549
      11.30000000      90.00000000     360.00000000      42.67562027       1.46844424
      11.40000000      90.00000000     360.00000000      42.67587467       1.46845299
      11.50000000      90.00000000     360.00000000      42.67612905       1.46846175
      11.60000000      90.00000000     360.00000000      42.67638340       1.46847050
      11.70000000      90.00000000     360.00000000      42.67663773       1.46847925
      11.80000000      90.00000000     360.00000000      42.67689203       1.46848800
      11.90000000      90.00000000     360.00000000      42.67714631       1.46849675
      12.00000000      90.00000000     360.00000000      42.67740056       1.46850550
      12.10000000      90.00000000     360.00000000      42.67765479       1.46851425
      12.20000000      90.00000000     360.00000000      42.67790899       1.46852299
      12.30000000      90.00000000     360.00000000      42.67816316       1.46853174
      12.40000000      90.00000000     360.00000000      42.67841731       1.46854048
      12.50000000      90.00000000     360.00000000      42.67867144       1.46854923
      12.60000000      90.00000000     360.00000000      42.67892554       1.46855797
      12.70000000      90.00000000     360.00000000      42.67917961       1.46856672
      12.80000000      90.00000000     360.00000000      42.67943366       1.46857546
      12.90000000      90.00000000     360.00000000      42.67968769       1.46858420
      13.00000000      90.00000000     360.00000000      42.67994168       1.46859294
      13.10000000      90.00000000     360.00000000      42.68019566       1.46860168
      13.20000000      90.00000000     360.00000000      42.68044961       1.46861041
      13.30000000      90.00000000     360.00000000      42.68070353       1.46861915
      13.40000000      90.00000000     360.00000000      42.68095743       1.46862789
      13.50000000      90.00000000     360.00000000      42.68121130       1.46863662
      13.60000000      90.00000000     360.00000000      42.68146515       1.46864536
      13.70000000      90.00000000     360.00000000      42.68171897       1.46865409
      13.80000000      90.00000000     360.00000000      42.68197277       1.46866283
      13.90000000      90.00000000     360.00000000      42.68222655       1.46867156
      14.00000000      90.00000000     360.00000000      42.68248029       1.46868029
      14.10000000      90.00000000     360.00000000      42.68273402       1.46868902
      14.20000000      90.00000000     360.00000000      42.68298772       1.46869775
      14.30000000      90.00000000     360.00000000      42.68324140       1.46870648
      14.40000000      90.00000000     360.00000000      42.68349505       1.46871521
      14.50000000      90.00000000     360.00000000      42.68374868       1.46872393
      14.60000000      90.00000000     360.00000000      42.68400228       1.46873266
      14.70000000      90.00000000     360.00000000      42.68425587       1.46874139
      14.80000000      90.00000000     360.00000000      42.68450943       1.46875011
      14.90000000      90.00000000     360.00000000      42.68476296       1.46875884
      15.00000000      90.00000000     360.00000000      42.68501647       1.46876756
      15.10000000      90.00000000     360.00000000      42.68526996       1.46877628
      15.20000000      90.00000000     360.00000000      42.68552342       1.46878500
      15.30000000      90.00000000     360.00000000      42.68577687       1.46879372
      15.40000000      90.00000000     360.00000000      42.68603028       1.46880244
      15.50000000      90.00000000     360.00000000      42.68628368       1.46881116
      15.60000000      90.00000000     360.00000000      42.68653705       1.46881988
      15.70000000      90.00000000     360.00000000      42.68679039       1.46882860
      15.80000000      90.00000000     360.00000000      42.68704371       1.46883731
      15.90000000      90.00000000     360.00000000      42.68729701       1.46884603
      16.00000000      90.00000000     360.00000000      42.68755028       1.46885475
      16.10000000      90.00000000     360.00000000      42.68780353       1.46886346
      16.20000000      90.00000000     360.00000000      42.68805675       1.46887217
      16.30000000      90.00000000     360.00000000      42.68830995       1.46888089
      16.40000000      90.00000000     360.00000000      42.68856313       1.46888960
      16.50000000      90.00000000     360.00000000      42.68881628       1.46889831
      16.60000000      90.00000000     360.00000000      42.68906940       1.46890702
      16.70000000      90.00000000     360.00000000      42.68932250       1.46891573
      16.80000000      90.00000000     360.00000000      42.68957557       1.46892443
      16.90000000      90.00000000     360.00000000      42.68982862       1.46893314
      17.00000000      90.00000000     360.00000000      42.69008165       1.46894185
      17.10000000      90.00000000     360.00000000      42.69033465       1.46895055
      17.20000000      90.00000000     360.00000000      42.69058762       1.46895926
      17.30000000      90.00000000     360.00000000      42.69084058       1.46896796
      17.40000000      90.00000000     360.00000000      42.69109350       1.46897667
      17.50000000      90.00000000     360.00000000      42.69134640       1.46898537
      17.60000000      90.00000000     360.00000000      42.69159927       1.46899407
      17.70000000      90.00000000     360.00000000      42.69185212       1.46900277
      17.80000000      90.00000000     360.00000000      42.69210495       1.46901147
      17.90000000      90.00000000     360.00000000      42.69235775       1.46902017
      18.00000000      90.00000000     360.00000000      42.69261052       1.46902887
      18.10000000      90.00000000     360.00000000      42.69286327       1.46903756
      18.20000000      90.00000000     360.00000000      42.69311600       1.46904626
      18.30000000      90.00000000     360.00000000      42.69336870       1.46905495
      18.40000000      90.00000000     360.00000000      42.69362138       1.46906365
      18.50000000      90.00000000     360.00000000      42.69387404       1.46907234
      18.60000000      90.00000000     360.00000000      42.69412667       1.46908103
      18.70000000      90.00000000     360.00000000      42.69437927       1.46908973
      18.80000000      90.00000000     360.00000000      42.69463185       1.46909842
      18.90000000      90.00000000     360.00000000      42.69488441       1.46910711
      19.00000000      90.00000000     360.00000000      42.69513695       1.46911580
      19.10000000      90.00000000     360.00000000      42.69538946       1.46912449
      19.20000000      90.00000000     360.00000000      42.69564194       1.46913317
      19.30000000      90.00000000     360.00000000      42.69589440       1.46914186
      19.40000000      90.00000000     360.00000000      42.69614684       1.46915055
      19.50000000      90.00000000     360.00000000      42.69639926       1.46915923
      19.60000000      90.00000000     360.00000000      42.69665165       1.46916792
      19.70000000      90.00000000     360.00000000      42.69690401       1.46917660
      19.80000000      90.00000000     360.00000000      42.69715636       1.46918528
      19.90000000      90.00000000     360.00000000      42.69740868       1.46919397
      20.00000000      90.00000000     360.00000000      42.69766097       1.46920265
      20.10000000      90.00000000     360.00000000      42.69791324       1.46921133
      20.20000000      90.00000000     360.00000000      42.69816549       1.46922001
      20.30000000      90.00000000     360.00000000      42.69841772       1.46922869
      20.40000000      90.00000000     360.00000000      42.69866992       1.46923737
      20.50000000      90.00000000     360.00000000      42.69892209       1.46924604
      20.60000000      90.00000000     360.00000000      42.69917425       1.46925472
      20.70000000      90.00000000     360.00000000      42.69942638       1.46926340
      20.80000000      90.00000000     360.00000000      42.69967849       1.46927207
      20.90000000      90.00000000     360.00000000      42.69993057       1.46928074
      21.00000000      90.00000000     360.00000000      42.70018263       1.46928942
      21.10000000      90.00000000     360.00000000      42.70043466       1.46929809
      21.20000000      90.00000000     360.00000000      42.70068668       1.46930676
      21.30000000      90.00000000     360.00000000      42.70093867       1.46931543
      21.40000000      90.00000000     360.00000000      42.70119063       1.46932410
      21.50000000      90.00000000     360.00000000      42.70144257       1.46933277
      21.60000000      90.00000000     360.00000000      42.70169449       1.46934144
      21.70000000      90.00000000     360.00000000      42.70194639       1.46935011
      21.80000000      90.00000000     360.00000000      42.70219826       1.46935877
      21.90000000      90.00000000     360.00000000      42.70245011       1.46936744
      22.00000000      90.00000000     360.00000000      42.70270194       1.46937611
      22.10000000      90.00000000     360.00000000      42.70295374       1.46938477
      22.20000000      90.00000000     360.00000000      42.70320552       1.46939343
      22.30000000      90.00000000     360.00000000      42.70345729       1.46940210
      22.40000000      90.00000000     360.00000000      42.70370902       1.46941076
      22.50000000      90.00000000     360.00000000      42.70396073       1.46941942
      22.60000000      90.00000000     360.00000000      42.70421242       1.46942808
      22.70000000      90.00000000     360.00000000      42.70446408       1.46943674
      22.80000000      90.00000000     360.00000000      42.70471572       1.46944540
      22.90000000      90.00000000     360.00000000      42.70496734       1.46945406
      23.00000000      90.00000000     360.00000000      42.70521892       1.46946271
      23.10000000      90.00000000     360.00000000      42.70547047       1.46947137
      23.20000000      90.00000000     360.00000000      42.70572199       1.46948002
      23.30000000      90.00000000     360.00000000      42.70597349       1.46948868
      23.40000000      90.00000000     360.00000000      42.70622497       1.46949733
      23.50000000      90.00000000     360.00000000      42.70647642       1.46950598
      23.60000000      90.00000000     360.00000000      42.70672785       1.46951463
      23.70000000      90.00000000     360.00000000      42.70697926       1.46952329
      23.80000000      90.00000000     360.00000000      42.70723065       1.46953194
      23.90000000      90.00000000     360.00000000      42.70748201       1.46954058
      24.00000000      90.00000000     360.00000000      42.70773335       1.46954923
      24.10000000      90.00000000     360.00000000      42.70798467       1.46955788
      24.20000000      90.00000000     360.00000000      42.70823596       1.46956653
      24.30000000      90.00000000     360.00000000      42.70848723       1.46957517
      24.40000000      90.00000000     360.00000000      42.70873883       1.46958383
      24.50000000      90.00000000     360.00000000      42.70899006       1.46959248
      24.60000000      90.00000000     360.00000000      42.70924127       1.46960112
      24.70000000      90.00000000     360.00000000      42.70949246       1.46960976
      24.80000000      90.00000000     360.00000000      42.70974362       1.46961841
      24.90000000      90.00000000     360.00000000      42.70999476       1.46962705
      25.00000000      90.00000000     360.00000000      42.71024588       1.46963569
      25.10000000      90.00000000     360.00000000      42.71049698       1.46964433
      25.20000000      90.00000000     360.00000000      42.71074806       1.46965297
      25.30000000      90.00000000     360.00000000      42.71099913       1.46966161
      25.40000000      90.00000000     360.00000000      42.71125017       1.46967025
      25.50000000      90.00000000     360.00000000      42.71150120       1.46967888
      25.60000000      90.00000000     360.00000000      42.71175222       1.46968752
      25.70000000      90.00000000     360.00000000      42.71200324       1.46969616
      25.80000000      90.00000000     360.00000000      42.71225426       1.46970480
      25.90000000      90.00000000     360.00000000      42.71250527       1.46971343
      26.00000000      90.00000000     360.00000000      42.71275624       1.46972207
      26.10000000      90.00000000     360.00000000      42.71300715       1.46973070
      26.20000000      90.00000000     360.00000000      42.71325798       1.46973933
      26.30000000      90.00000000     360.00000000      42.71350877       1.46974796
      26.40000000      90.00000000     360.00000000      42.71375951       1.46975659
      26.50000000      90.00000000     360.00000000      42.71401022       1.46976522
      26.60000000      90.00000000     360.00000000      42.71426090       1.46977384
      26.70000000      90.00000000     360.00000000      42.71451156       1.46978247
      26.80000000      90.00000000     360.00000000      42.71476221       1.46979109
      26.90000000      90.00000000     360.00000000      42.71501284       1.46979972
      27.00000000      90.00000000     360.00000000      42.71526347       1.46980834
      27.10000000      90.00000000     360.00000000      42.71551408       1.46981696
      27.20000000      90.00000000     360.00000000      42.71576468       1.46982559
      27.30000000      90.00000000     360.00000000      42.71601526       1.46983421
      27.40000000      90.00000000     360.00000000      42.71626582       1.46984283
      27.50000000      90.00000000     360.00000000      42.71651637       1.46985145
      27.60000000      90.00000000     360.00000000      42.71676689       1.46986007
      27.70000000      90.00000000     360.00000000      42.71701739       1.46986869
      27.80000000      90.00000000     360.00000000      42.71726787       1.46987731
      27.90000000      90.00000000     360.00000000      42.71751957       1.46988597
      28.00000000      90.00000000     360.00000000      42.71777003       1.46989459
      28.10000000      90.00000000     360.00000000      42.71802047       1.46990321
      28.20000000      90.00000000     360.00000000      42.71827089       1.46991182
      28.30000000      90.00000000     360.00000000      42.71852128       1.46992044
      28.40000000      90.00000000     360.00000000      42.71877166       1.46992906
      28.50000000      90.00000000     360.00000000      42.71902201       1.46993767
      28.60000000      90.00000000     360.00000000      42.71927233       1.46994628
      28.70000000      90.00000000     360.00000000      42.71952264       1.46995490
      28.80000000      90.00000000     360.00000000      42.71977292       1.46996351
      28.90000000      90.00000000     360.00000000      42.72002318       1.46997212
      29.00000000      90.00000000     360.00000000      42.72027342       1.46998073
      29.10000000      90.00000000     360.00000000      42.72052364       1.46998934
      29.20000000      90.00000000     360.00000000      42.72077383       1.46999795
      29.30000000      90.00000000     360.00000000      42.72102401       1.47000656
      29.40000000      90.00000000     360.00000000      42.72127416       1.47001516
      29.50000000      90.00000000     360.00000000      42.72152428       1.47002377
      29.60000000      90.00000000     360.00000000      42.72177439       1.47003238
      29.70000000      90.00000000     360.00000000      42.72202447       1.47004098
      29.80000000      90.00000000     360.00000000      42.72227453       1.47004959
      29.90000000      90.00000000     360.00000000      42.72252457       1.47005819
      30.00000000      90.00000000     360.00000000      42.72277459       1.47006679
      30.10000000      90.00000000     360.00000000      42.72302459       1.47007540
      30.20000000      90.00000000     360.00000000      42.72327456       1.47008400
      30.30000000      90.00000000     360.00000000      42.72352451       1.47009260
      30.40000000      90.00000000     360.00000000      42.72377444       1.47010120
      30.50000000      90.00000000     360.00000000      42.72402434       1.47010980
      30.60000000      90.00000000     360.00000000      42.72427423       1.47011840
      30.70000000      90.00000000     360.00000000      42.72452409       1.47012699
      30.80000000      90.00000000     360.00000000      42.72477393       1.47013559
      30.90000000      90.00000000     360.00000000      42.72502375       1.47014419
      31.00000000      90.00000000     360.00000000      42.72527354       1.47015278
      31.10000000      90.00000000     360.00000000      42.72552332       1.47016138
      31.20000000      90.00000000     360.00000000      42.72577307       1.47016997
      31.30000000      90.00000000     360.00000000      42.72602280       1.47017856
      31.40000000      90.00000000     360.00000000      42.72627251       1.47018716
      31.50000000      90.00000000     360.00000000      42.72652220       1.47019575
      31.60000000      90.00000000     360.00000000      42.72677186       1.47020434
      31.70000000      90.00000000     360.00000000      42.72702150       1.47021293
      31.80000000      90.00000000     360.00000000      42.72727112       1.47022152
      31.90000000      90.00000000     360.00000000      42.72752072       1.47023011
      32.00000000      90.00000000     360.00000000      42.72777030       1.47023869
      32.10000000      90.00000000     360.00000000      42.72801985       1.47024728
      32.20000000      90.00000000     360.00000000      42.72826938       1.47025587
      32.30000000      90.00000000     360.00000000      42.72851889       1.47026445
      32.40000000      90.00000000     360.00000000      42.72876838       1.47027304
      32.50000000      90.00000000     360.00000000      42.72901785       1.47028162
      32.60000000      90.00000000     360.00000000      42.72926729       1.47029020
      32.70000000      90.00000000     360.00000000      42.72951672       1.47029879
      32.80000000      90.00000000     360.00000000      42.72976612       1.47030737
      32.90000000      90.00000000     360.00000000      42.73001550       1.47031595
      33.00000000      90.00000000     360.00000000      42.73026486       1.47032453
      33.10000000      90.00000000     360.00000000      42.73051419       1.47033311
      33.20000000      90.00000000     360.00000000      42.73076350       1.47034169
      33.30000000      90.00000000     360.00000000      42.73101280       1.47035027
      33.40000000      90.00000000     360.00000000      42.73126207       1.47035884
      33.50000000      90.00000000     360.00000000      42.73151132       1.47036742
      33.60000000      90.00000000     360.00000000      42.73176054       1.47037600
      33.70000000      90.00000000     360.00000000      42.73200975       1.47038457
      33.80000000      90.00000000     360.00000000      42.73225893       1.47039314
      33.90000000      90.00000000     360.00000000      42.73250809       1.47040172
      34.00000000      90.00000000     360.00000000      42.73275723       1.47041029
      34.10000000      90.00000000     360.00000000      42.73300635       1.47041886
      34.20000000      90.00000000     360.00000000      42.73325545       1.47042743
      34.30000000      90.00000000     360.00000000      42.73350452       1.47043600
      34.40000000      90.00000000     360.00000000      42.73375357       1.47044457
      34.50000000      90.00000000     360.00000000      42.73400260       1.47045314
      34.60000000      90.00000000     360.00000000      42.73425161       1.47046171
      34.70000000      90.00000000     360.00000000      42.73450060       1.47047028
      34.80000000      90.00000000     360.00000000      42.73474957       1.47047885
      34.90000000      90.00000000     360.00000000      42.73499851       1.47048741
      35.00000000      90.00000000     360.00000000      42.73524743       1.47049598
      35.10000000      90.00000000     360.00000000      42.73549633       1.47050454
      35.20000000      90.00000000     360.00000000      42.73574521       1.47051311
      35.30000000      90.00000000     360.00000000      42.73599407       1.47052167
      35.40000000      90.00000000     360.00000000      42.73624291       1.47053023
      35.50000000      90.00000000     360.00000000      42.73649172       1.47053879
      35.60000000      90.00000000     360.00000000      42.73674051       1.47054735
      35.70000000      90.00000000     360.00000000      42.73698928       1.47055591
      35.80000000      90.00000000     360.00000000      42.73723803       1.47056447
      35.90000000      90.00000000     360.00000000      42.73748676       1.47057303
      36.00000000      90.00000000     360.00000000      42.73773547       1.47058159
      36.10000000      90.00000000     360.00000000      42.73798415       1.47059015
      36.20000000      90.00000000     360.00000000      42.73823279       1.47059870
      36.30000000      90.00000000     360.00000000      42.73848136       1.47060726
      36.40000000      90.00000000     360.00000000      42.73872991       1.47061581
      36.50000000      90.00000000     360.00000000      42.73897844       1.47062436
      36.60000000      90.00000000     360.00000000      42.73922695       1.47063291
      36.70000000      90.00000000     360.00000000      42.73947543       1.47064146
      36.80000000      90.00000000     360.00000000      42.73972390       1.47065001
      36.90000000      90.00000000     360.00000000      42.73997234       1.47065856
      37.00000000      90.00000000     360.00000000      42.74022076       1.47066711
      37.10000000      90.00000000     360.00000000      42.74046916       1.47067565
      37.20000000      90.00000000     360.00000000      42.74071754       1.47068420
      37.30000000      90.00000000     360.00000000      42.74096589       1.47069275
      37.40000000      90.00000000     360.00000000      42.74121422       1.47070129
      37.50000000      90.00000000     360.00000000      42.74146254       1.47070984
      37.60000000      90.00000000     360.00000000      42.74171082       1.47071838
      37.70000000      90.00000000     360.00000000      42.74195909       1.47072692
      37.80000000      90.00000000     360.00000000      42.74220734       1.47073546
      37.90000000      90.00000000     360.00000000      42.74245556       1.47074401
      38.00000000      90.00000000     360.00000000      42.74270503       1.47075259
      38.10000000      90.00000000     360.00000000      42.74295328       1.47076113
      38.20000000      90.00000000     360.00000000      42.74320150       1.47076967
      38.30000000      90.00000000     360.00000000      42.74344971       1.47077821
      38.40000000      90.00000000     360.00000000      42.74369789       1.47078675
      38.50000000      90.00000000     360.00000000      42.74394606       1.47079529
      38.60000000      90.00000000     360.00000000      42.74419420       1.47080383
      38.70000000      90.00000000     360.00000000      42.74444232       1.47081237
      38.80000000      90.00000000     360.00000000      42.74469041       1.47082091
      38.90000000      90.00000000     360.00000000      42.74493849       1.47082944
      39.00000000      90.00000000     360.00000000      42.74518654       1.47083798
      39.10000000      90.00000000     360.00000000      42.74543458       1.47084651
      39.20000000      90.00000000     360.00000000      42.74568259       1.47085505
      39.30000000      90.00000000     360.00000000      42.74593058       1.47086358
      39.40000000      90.00000000     360.00000000      42.74617855       1.47087211
      39.50000000      90.00000000     360.00000000      42.74642650       1.47088064
      39.60000000      90.00000000     360.00000000      42.74667442       1.47088917
      39.70000000      90.00000000     360.00000000      42.74692233       1.47089770
      39.80000000      90.00000000     360.00000000      42.74717021       1.47090623
      39.90000000      90.00000000     360.00000000      42.74741808       1.47091476
      40.00000000      90.00000000     360.00000000      42.74766592       1.47092329
