 # applied field (T), theta (degree), phi (degree), abs for RE 3-4
     0.00000   180.00000   360.00000     0.03009   180.00000   360.00000     0.03009
     0.10000   178.10989   212.07322     0.03011   178.10989   237.92678     0.03011
     0.20000   175.76118   212.33619     0.03017   175.76118   237.66381     0.03017
     0.30000   173.88440   212.25537     0.03025   173.88440   237.74463     0.03025
     0.40000   172.01932   212.21275     0.03036   172.01932   237.78725     0.03036
     0.50000   169.71766   212.28905     0.03054   169.71766   237.71095     0.03054
     0.60000   167.89091   212.25629     0.03072   167.89091   237.74371     0.03072
     0.70000   166.08614   212.23243     0.03092   166.08614   237.76757     0.03092
     0.80000   163.87299   212.27808     0.03121   163.87299   237.72192     0.03121
     0.90000   162.12711   212.25782     0.03148   162.12711   237.74218     0.03148
     1.00000   160.41110   212.24150     0.03177   160.41110   237.75850     0.03177
     1.10000   158.31822   212.27440     0.03217   158.31822   237.72560     0.03217
     1.20000   156.67565   212.25997     0.03251   156.67565   237.74003     0.03251
     1.30000   154.67863   212.28648     0.03298   154.67863   237.71352     0.03298
     1.40000   153.11584   212.27374     0.03337   153.11584   237.72626     0.03337
     1.50000   151.58988   212.26274     0.03379   151.58988   237.73726     0.03379
     1.60000   149.74137   212.28473     0.03434   149.74137   237.71527     0.03434
     1.70000   148.29954   212.27484     0.03480   148.29954   237.72516     0.03480
     1.80000   146.89535   212.26613     0.03529   146.89535   237.73387     0.03529
     1.90000   145.19876   212.28509     0.03591   145.19876   237.71491     0.03591
     2.00000   143.87843   212.27718     0.03643   143.87843   237.72282     0.03643
     2.10000   142.59483   212.27015     0.03697   142.59483   237.72985     0.03697
     2.20000   141.04652   212.28696     0.03766   141.04652   237.71304     0.03766
     2.30000   139.84330   212.28054     0.03823   139.84330   237.71946     0.03823
     2.40000   138.67475   212.27480     0.03881   138.67475   237.72520     0.03881
     2.50000   137.26649   212.29002     0.03956   137.26649   237.70998     0.03956
     2.60000   136.17289   212.28478     0.04017   136.17289   237.71522     0.04017
     2.70000   134.85531   212.29887     0.04095   134.85531   237.70113     0.04095
     2.80000   133.83229   212.29411     0.04158   133.83229   237.70589     0.04158
     2.90000   132.83923   212.28983     0.04223   132.83923   237.71017     0.04223
     3.00000   131.64276   212.30298     0.04304   131.64276   237.69702     0.04304
     3.10000   130.71365   212.29911     0.04371   130.71365   237.70089     0.04371
     3.20000   129.81153   212.29564     0.04438   129.81153   237.70436     0.04438
     3.30000   128.72421   212.30807     0.04523   128.72421   237.69193     0.04523
     3.40000   127.87947   212.30496     0.04592   127.87947   237.69504     0.04592
     3.50000   126.86086   212.31682     0.04679   126.86086   237.68318     0.04679
     3.60000   126.06912   212.31406     0.04750   126.06912   237.68594     0.04750
     3.70000   125.29966   212.31162     0.04821   125.29966   237.68838     0.04821
     3.80000   124.37110   212.32302     0.04910   124.37110   237.67698     0.04910
     3.90000   123.64878   212.32090     0.04982   123.64878   237.67910     0.04982
     4.00000   122.94623   212.31906     0.05055   122.94623   237.68094     0.05055
     4.10000   122.09763   212.33010     0.05146   122.09763   237.66990     0.05146
     4.20000   121.43692   212.32855     0.05219   121.43692   237.67145     0.05219
     4.30000   120.63829   212.33929     0.05312   120.63829   237.66071     0.05312
     4.40000   120.01606   212.33802     0.05386   120.01606   237.66198     0.05386
     4.50000   119.40998   212.33700     0.05460   119.40998   237.66300     0.05460
     4.60000   118.67662   212.34752     0.05554   118.67662   237.65248     0.05554
     4.70000   118.10468   212.34676     0.05629   118.10468   237.65324     0.05629
     4.80000   117.41212   212.35709     0.05723   117.41212   237.64291     0.05723
     4.90000   116.87163   212.35659     0.05799   116.87163   237.64341     0.05799
     5.00000   116.34434   212.35630     0.05874   116.34434   237.64370     0.05874
     5.10000   115.70515   212.36652     0.05969   115.70515   237.63348     0.05969
     5.20000   115.20583   212.36648     0.06045   115.20583   237.63352     0.06045
     5.30000   114.60009   212.37657     0.06140   114.60009   237.62343     0.06140
     5.40000   114.12659   212.37678     0.06216   114.12659   237.62322     0.06216
     5.50000   113.55175   212.38677     0.06312   113.55175   237.61323     0.06312
     5.60000   113.10210   212.38723     0.06388   113.10210   237.61277     0.06388
     5.70000   112.66249   212.38786     0.06464   112.66249   237.61214     0.06464
     5.80000   112.12826   212.39784     0.06560   112.12826   237.60216     0.06560
     5.90000   111.71000   212.39871     0.06636   111.71000   237.60129     0.06636
     6.00000   111.20134   212.40865     0.06731   111.20134   237.59135     0.06731
     6.10000   110.80287   212.40975     0.06808   110.80287   237.59025     0.06808
     6.20000   110.31794   212.41967     0.06903   110.31794   237.58033     0.06903
     6.30000   109.93785   212.42100     0.06979   109.93785   237.57900     0.06979
     6.40000   109.47498   212.43091     0.07074   109.47498   237.56909     0.07074
     6.50000   109.11197   212.43247     0.07150   109.11197   237.56753     0.07150
     6.60000   108.75620   212.43419     0.07226   108.75620   237.56581     0.07226
     6.70000   108.32255   212.44418     0.07321   108.32255   237.55582     0.07321
     6.80000   107.98221   212.44613     0.07396   107.98221   237.55387     0.07396
     6.90000   107.56710   212.45613     0.07491   107.56710   237.54387     0.07491
     7.00000   107.24117   212.45830     0.07566   107.24117   237.54170     0.07566
     7.10000   106.84339   212.46835     0.07660   106.84339   237.53165     0.07660
     7.20000   106.53094   212.47074     0.07735   106.53094   237.52926     0.07735
     7.30000   106.14937   212.48083     0.07828   106.14937   237.51917     0.07828
     7.40000   105.84953   212.48345     0.07903   105.84953   237.51655     0.07903
     7.50000   105.48316   212.49360     0.07996   105.48316   237.50640     0.07996
     7.60000   105.19515   212.49644     0.08070   105.19515   237.50356     0.08070
     7.70000   104.84304   212.50666     0.08162   104.84304   237.49334     0.08162
     7.80000   104.56615   212.50972     0.08236   104.56615   237.49028     0.08236
     7.90000   104.22745   212.52002     0.08328   104.22745   237.47998     0.08328
     8.00000   103.96102   212.52330     0.08401   103.96102   237.47670     0.08401
     8.10000   103.63494   212.53368     0.08492   103.63494   237.46632     0.08492
     8.20000   103.37838   212.53718     0.08565   103.37838   237.46282     0.08565
     8.30000   103.06420   212.54766     0.08655   103.06420   237.45234     0.08655
     8.40000   102.75634   212.55815     0.08745   102.75634   237.44185     0.08745
     8.50000   102.51401   212.56196     0.08817   102.51401   237.43804     0.08817
     8.60000   102.21704   212.57256     0.08906   102.21704   237.42744     0.08906
     8.70000   101.98325   212.57658     0.08977   101.98325   237.42342     0.08977
     8.80000   101.69661   212.58729     0.09066   101.69661   237.41271     0.09066
     8.90000   101.47091   212.59154     0.09136   101.47091   237.40846     0.09136
     9.00000   101.19405   212.60237     0.09224   101.19405   237.39763     0.09224
     9.10000   100.92240   212.61323     0.09311   100.92240   237.38677     0.09311
     9.20000   100.70846   212.61779     0.09380   100.70846   237.38221     0.09380
     9.30000   100.44585   212.62878     0.09467   100.44585   237.37122     0.09467
     9.40000   100.23901   212.63356     0.09535   100.23901   237.36644     0.09535
     9.50000    99.98500   212.64469     0.09621    99.98500   237.35531     0.09621
     9.60000    99.73559   212.65586     0.09706    99.73559   237.34414     0.09706
     9.70000    99.53913   212.66095     0.09773    99.53913   237.33905     0.09773
     9.80000    99.29771   212.67226     0.09857    99.29771   237.32774     0.09857
     9.90000    99.06056   212.68362     0.09941    99.06056   237.31638     0.09941
    10.00000    98.87377   212.68903     0.10007    98.87377   237.31097     0.10007
    10.10000    98.64407   212.70053     0.10090    98.64407   237.29947     0.10090
    10.20000    98.41836   212.71209     0.10172    98.41836   237.28791     0.10172
    10.30000    98.24061   212.71782     0.10237    98.24061   237.28218     0.10237
    10.40000    98.02188   212.72954     0.10318    98.02188   237.27046     0.10318
    10.50000    97.80689   212.74131     0.10398    97.80689   237.25869     0.10398
    10.60000    97.63760   212.74735     0.10462    97.63760   237.25265     0.10462
    10.70000    97.42916   212.75929     0.10541    97.42916   237.24071     0.10541
    10.80000    97.22424   212.77129     0.10620    97.22424   237.22871     0.10620
    10.90000    97.02276   212.78335     0.10699    97.02276   237.21665     0.10699
    11.00000    96.86418   212.78981     0.10760    96.86418   237.21019     0.10760
    11.10000    96.66875   212.80204     0.10837    96.66875   237.19796     0.10837
    11.20000    96.47658   212.81433     0.10914    96.47658   237.18567     0.10914
    11.30000    96.28759   212.82670     0.10990    96.28759   237.17330     0.10990
    11.40000    96.10174   212.83914     0.11065    96.10174   237.16086     0.11065
    11.50000    95.95557   212.84611     0.11125    95.95557   237.15389     0.11125
    11.60000    95.77524   212.85872     0.11199    95.77524   237.14128     0.11199
    11.70000    95.59788   212.87140     0.11273    95.59788   237.12860     0.11273
    11.80000    95.42345   212.88416     0.11346    95.42345   237.11584     0.11346
    11.90000    95.25190   212.89699     0.11418    95.25190   237.10301     0.11418
    12.00000    95.08317   212.90989     0.11490    95.08317   237.09011     0.11490
    12.10000    94.95063   212.91748     0.11546    94.95063   237.08252     0.11546
    12.20000    94.78690   212.93056     0.11617    94.78690   237.06944     0.11617
    12.30000    94.62588   212.94372     0.11686    94.62588   237.05628     0.11686
    12.40000    94.46752   212.95695     0.11756    94.46752   237.04305     0.11756
    12.50000    94.31179   212.97027     0.11824    94.31179   237.02973     0.11824
    12.60000    94.15864   212.98366     0.11892    94.15864   237.01634     0.11892
    12.70000    94.00805   212.99712     0.11960    94.00805   237.00288     0.11960
    12.80000    93.85997   213.01067     0.12026    93.85997   236.98933     0.12026
    12.90000    93.71438   213.02430     0.12092    93.71438   236.97570     0.12092
    13.00000    93.57123   213.03800     0.12157    93.57123   236.96200     0.12157
    13.10000    93.43051   213.05178     0.12222    93.43051   236.94822     0.12222
    13.20000    93.29217   213.06565     0.12286    93.29217   236.93435     0.12286
    13.30000    93.15620   213.07959     0.12349    93.15620   236.92041     0.12349
    13.40000    93.02256   213.09360     0.12412    93.02256   236.90640     0.12412
    13.50000    92.86444   213.11282     0.12487    92.86444   236.88718     0.12487
    13.60000    92.73582   213.12698     0.12548    92.73582   236.87302     0.12548
    13.70000    92.60945   213.14122     0.12608    92.60945   236.85878     0.12608
    13.80000    92.48532   213.15553     0.12668    92.48532   236.84447     0.12668
    13.90000    92.36338   213.16992     0.12727    92.36338   236.83008     0.12727
    14.00000    92.24364   213.18439     0.12785    92.24364   236.81561     0.12785
    14.10000    92.10184   213.20395     0.12855    92.10184   236.79605     0.12855
    14.20000    91.98680   213.21855     0.12912    91.98680   236.78145     0.12912
    14.30000    91.87389   213.23323     0.12968    91.87389   236.76677     0.12968
    14.40000    91.74012   213.25295     0.13036    91.74012   236.74705     0.13036
    14.50000    91.63178   213.26776     0.13090    91.63178   236.73224     0.13090
    14.60000    91.52550   213.28264     0.13144    91.52550   236.71736     0.13144
    14.70000    91.39955   213.30252     0.13209    91.39955   236.69748     0.13209
    14.80000    91.29772   213.31752     0.13261    91.29772   236.68248     0.13261
    14.90000    91.19792   213.33260     0.13313    91.19792   236.66740     0.13313
    15.00000    91.07957   213.35262     0.13375    91.07957   236.64738     0.13375
    15.10000    90.98411   213.36781     0.13425    90.98411   236.63219     0.13425
    15.20000    90.87089   213.38792     0.13486    90.87089   236.61208     0.13486
    15.30000    90.76042   213.40805     0.13545    90.76042   236.59195     0.13545
    15.40000    90.67154   213.42340     0.13593    90.67154   236.57660     0.13593
    15.50000    90.56606   213.44362     0.13651    90.56606   236.55638     0.13651
    15.60000    90.48137   213.45907     0.13697    90.48137   236.54093     0.13697
    15.70000    90.38083   213.47935     0.13753    90.38083   236.52065     0.13753
    15.80000    90.28293   213.49965     0.13808    90.28293   236.50035     0.13808
    15.90000    90.18767   213.51997     0.13862    90.18767   236.48003     0.13862
    16.00000    90.09501   213.54030     0.13915    90.09501   236.45970     0.13915
    16.10000    90.02105   213.55595     0.13957    90.02105   236.44405     0.13957
    16.20000    89.93316   213.57633     0.14009    89.93316   236.42367     0.14009
    16.30000    89.84783   213.59672     0.14059    89.84783   236.40328     0.14059
    16.40000    89.76504   213.61711     0.14108    89.76504   236.38289     0.14108
    16.50000    89.68478   213.63750     0.14157    89.68478   236.36250     0.14157
    16.60000    89.60702   213.65790     0.14204    89.60702   236.34210     0.14204
    16.70000    89.53176   213.67828     0.14251    89.53176   236.32172     0.14251
    16.80000    89.44564   213.70322     0.14305    89.44564   236.29678     0.14305
    16.90000    89.37570   213.72357     0.14350    89.37570   236.27643     0.14350
    17.00000    89.30821   213.74389     0.14393    89.30821   236.25611     0.14393
    17.10000    89.23101   213.76869     0.14444    89.23101   236.23131     0.14444
    17.20000    89.16874   213.78895     0.14486    89.16874   236.21105     0.14486
    17.30000    89.10886   213.80918     0.14527    89.10886   236.19082     0.14527
    17.40000    89.04041   213.83379     0.14574    89.04041   236.16621     0.14574
    17.50000    88.97512   213.85831     0.14621    88.97512   236.14169     0.14621
    17.60000    88.92307   213.87837     0.14659    88.92307   236.12163     0.14659
    17.70000    88.86362   213.90272     0.14703    88.86362   236.09728     0.14703
    17.80000    88.80725   213.92696     0.14746    88.80725   236.07304     0.14746
    17.90000    88.75395   213.95107     0.14788    88.75395   236.04893     0.14788
    18.00000    88.70370   213.97506     0.14829    88.70370   236.02494     0.14829
    18.10000    88.65647   213.99892     0.14869    88.65647   236.00108     0.14869
    18.20000    88.61223   214.02263     0.14907    88.61223   235.97737     0.14907
    18.30000    88.57096   214.04619     0.14945    88.57096   235.95381     0.14945
    18.40000    88.52581   214.07371     0.14987    88.52581   235.92629     0.14987
    18.50000    88.49078   214.09690     0.15022    88.49078   235.90310     0.15022
    18.60000    88.45266   214.12395     0.15062    88.45266   235.87605     0.15062
    18.70000    88.41823   214.15073     0.15101    88.41823   235.84927     0.15101
    18.80000    88.39253   214.17329     0.15133    88.39253   235.82671     0.15133
    18.90000    88.36490   214.19954     0.15169    88.36490   235.80046     0.15169
    19.00000    88.33658   214.22933     0.15209    88.33658   235.77067     0.15209
    19.10000    88.31643   214.25490     0.15242    88.31643   235.74510     0.15242
    19.20000    88.29974   214.28013     0.15274    88.29974   235.71987     0.15274
    19.30000    88.28351   214.30871     0.15310    88.28351   235.69129     0.15310
    19.40000    88.27150   214.33681     0.15344    88.27150   235.66319     0.15344
    19.50000    88.26362   214.36441     0.15376    88.26362   235.63559     0.15376
    19.60000    88.25981   214.39149     0.15407    88.25981   235.60851     0.15407
    19.70000    88.25885   214.42148     0.15441    88.25885   235.57852     0.15441
    19.80000    88.26268   214.45076     0.15473    88.26268   235.54924     0.15473
    19.90000    88.27120   214.47932     0.15503    88.27120   235.52068     0.15503
    20.00000    88.28428   214.50712     0.15532    88.28428   235.49288     0.15532
    20.10000    88.30252   214.53727     0.15562    88.30252   235.46273     0.15562
    20.20000    88.32596   214.56643     0.15590    88.32596   235.43357     0.15590
    20.30000    88.35611   214.59750     0.15620    88.35611   235.40250     0.15620
    20.40000    88.39202   214.62732     0.15647    88.39202   235.37268     0.15647
    20.50000    88.43609   214.65853     0.15676    88.43609   235.34147     0.15676
    20.60000    88.48949   214.69075     0.15704    88.48949   235.30925     0.15704
    20.70000    88.54970   214.72109     0.15729    88.54970   235.27891     0.15729
    20.80000    88.62042   214.75177     0.15754    88.62042   235.24823     0.15754
    20.90000    88.70719   214.78439     0.15780    88.70719   235.21561     0.15780
    21.00000    88.80719   214.81592     0.15804    88.80719   235.18408     0.15804
    21.10000    88.93218   214.84912     0.15829    88.93218   235.15088     0.15829
    21.20000    89.08533   214.88182     0.15853    89.08533   235.11818     0.15853
    21.30000    89.28885   214.91487     0.15876    89.28885   235.08513     0.15876
    21.40000    89.61873   214.94839     0.15898    89.61873   235.05161     0.15898
    21.50000    90.00000   214.95740     0.15899    90.00000   235.04260     0.15899
    21.60000    90.00000   214.95111     0.15886    90.00000   235.04889     0.15886
    21.70000    90.00000   214.94480     0.15874    90.00000   235.05520     0.15874
    21.80000    90.00000   214.93848     0.15861    90.00000   235.06152     0.15861
    21.90000    90.00000   214.93215     0.15848    90.00000   235.06785     0.15848
    22.00000    90.00000   214.92582     0.15835    90.00000   235.07418     0.15835
    22.10000    90.00000   214.91947     0.15823    90.00000   235.08053     0.15823
    22.20000    90.00000   214.91311     0.15810    90.00000   235.08689     0.15810
    22.30000    90.00000   214.90675     0.15797    90.00000   235.09325     0.15797
    22.40000    90.00000   214.90037     0.15785    90.00000   235.09963     0.15785
    22.50000    90.00000   214.89399     0.15772    90.00000   235.10601     0.15772
    22.60000    90.00000   214.88760     0.15759    90.00000   235.11240     0.15759
    22.70000    90.00000   214.88119     0.15746    90.00000   235.11881     0.15746
    22.80000    90.00000   214.87478     0.15734    90.00000   235.12522     0.15734
    22.90000    90.00000   214.86836     0.15721    90.00000   235.13164     0.15721
    23.00000    90.00000   214.86192     0.15708    90.00000   235.13808     0.15708
    23.10000    90.00000   214.85548     0.15695    90.00000   235.14452     0.15695
    23.20000    90.00000   214.84903     0.15683    90.00000   235.15097     0.15683
    23.30000    90.00000   214.84257     0.15670    90.00000   235.15743     0.15670
    23.40000    90.00000   214.83609     0.15657    90.00000   235.16391     0.15657
    23.50000    90.00000   214.82961     0.15645    90.00000   235.17039     0.15645
    23.60000    90.00000   214.82312     0.15632    90.00000   235.17688     0.15632
    23.70000    90.00000   214.81662     0.15619    90.00000   235.18338     0.15619
    23.80000    90.00000   214.81011     0.15607    90.00000   235.18989     0.15607
    23.90000    90.00000   214.80359     0.15594    90.00000   235.19641     0.15594
    24.00000    90.00000   214.79706     0.15581    90.00000   235.20294     0.15581
    24.10000    90.00000   214.79052     0.15568    90.00000   235.20948     0.15568
    24.20000    90.00000   214.78397     0.15556    90.00000   235.21603     0.15556
    24.30000    90.00000   214.77741     0.15543    90.00000   235.22259     0.15543
    24.40000    90.00000   214.77083     0.15530    90.00000   235.22917     0.15530
    24.50000    90.00000   214.76425     0.15518    90.00000   235.23575     0.15518
    24.60000    90.00000   214.75766     0.15505    90.00000   235.24234     0.15505
    24.70000    90.00000   214.75106     0.15492    90.00000   235.24894     0.15492
    24.80000    90.00000   214.74445     0.15480    90.00000   235.25555     0.15480
    24.90000    90.00000   214.73783     0.15467    90.00000   235.26217     0.15467
    25.00000    90.00000   214.73120     0.15454    90.00000   235.26880     0.15454
    25.10000    90.00000   214.72456     0.15442    90.00000   235.27544     0.15442
    25.20000    90.00000   214.71790     0.15429    90.00000   235.28210     0.15429
    25.30000    90.00000   214.71124     0.15416    90.00000   235.28876     0.15416
    25.40000    90.00000   214.70457     0.15403    90.00000   235.29543     0.15403
    25.50000    90.00000   214.69789     0.15391    90.00000   235.30211     0.15391
    25.60000    90.00000   214.69119     0.15378    90.00000   235.30881     0.15378
    25.70000    90.00000   214.68449     0.15365    90.00000   235.31551     0.15365
    25.80000    90.00000   214.67778     0.15353    90.00000   235.32222     0.15353
    25.90000    90.00000   214.67105     0.15340    90.00000   235.32895     0.15340
    26.00000    90.00000   214.66432     0.15327    90.00000   235.33568     0.15327
    26.10000    90.00000   214.65757     0.15315    90.00000   235.34243     0.15315
    26.20000    90.00000   214.65082     0.15302    90.00000   235.34918     0.15302
    26.30000    90.00000   214.64405     0.15289    90.00000   235.35595     0.15289
    26.40000    90.00000   214.63728     0.15277    90.00000   235.36272     0.15277
    26.50000    90.00000   214.63049     0.15264    90.00000   235.36951     0.15264
    26.60000    90.00000   214.62369     0.15251    90.00000   235.37631     0.15251
    26.70000    90.00000   214.61689     0.15239    90.00000   235.38311     0.15239
    26.80000    90.00000   214.61007     0.15226    90.00000   235.38993     0.15226
    26.90000    90.00000   214.60324     0.15213    90.00000   235.39676     0.15213
    27.00000    90.00000   214.59640     0.15201    90.00000   235.40360     0.15201
    27.10000    90.00000   214.58955     0.15188    90.00000   235.41045     0.15188
    27.20000    90.00000   214.58269     0.15175    90.00000   235.41731     0.15175
    27.30000    90.00000   214.57581     0.15163    90.00000   235.42419     0.15163
    27.40000    90.00000   214.56893     0.15150    90.00000   235.43107     0.15150
    27.50000    90.00000   214.56204     0.15137    90.00000   235.43796     0.15137
    27.60000    90.00000   214.55513     0.15125    90.00000   235.44487     0.15125
    27.70000    90.00000   214.54822     0.15112    90.00000   235.45178     0.15112
    27.80000    90.00000   214.54129     0.15099    90.00000   235.45871     0.15099
    27.90000    90.00000   214.53436     0.15087    90.00000   235.46564     0.15087
    28.00000    90.00000   214.52741     0.15074    90.00000   235.47259     0.15074
    28.10000    90.00000   214.52045     0.15061    90.00000   235.47955     0.15061
    28.20000    90.00000   214.51348     0.15049    90.00000   235.48652     0.15049
    28.30000    90.00000   214.50650     0.15036    90.00000   235.49350     0.15036
    28.40000    90.00000   214.49951     0.15024    90.00000   235.50049     0.15024
    28.50000    90.00000   214.49251     0.15011    90.00000   235.50749     0.15011
    28.60000    90.00000   214.48549     0.14998    90.00000   235.51451     0.14998
    28.70000    90.00000   214.47847     0.14986    90.00000   235.52153     0.14986
    28.80000    90.00000   214.47143     0.14973    90.00000   235.52857     0.14973
    28.90000    90.00000   214.46438     0.14960    90.00000   235.53562     0.14960
    29.00000    90.00000   214.45733     0.14948    90.00000   235.54267     0.14948
    29.10000    90.00000   214.45026     0.14935    90.00000   235.54974     0.14935
    29.20000    90.00000   214.44318     0.14922    90.00000   235.55682     0.14922
    29.30000    90.00000   214.43608     0.14910    90.00000   235.56392     0.14910
    29.40000    90.00000   214.42898     0.14897    90.00000   235.57102     0.14897
    29.50000    90.00000   214.42187     0.14885    90.00000   235.57813     0.14885
    29.60000    90.00000   214.41474     0.14872    90.00000   235.58526     0.14872
    29.70000    90.00000   214.40760     0.14859    90.00000   235.59240     0.14859
    29.80000    90.00000   214.40045     0.14847    90.00000   235.59955     0.14847
    29.90000    90.00000   214.39329     0.14834    90.00000   235.60671     0.14834
    30.00000    90.00000   214.38612     0.14821    90.00000   235.61388     0.14821
    30.10000    90.00000   214.37894     0.14809    90.00000   235.62106     0.14809
    30.20000    90.00000   214.37175     0.14796    90.00000   235.62825     0.14796
    30.30000    90.00000   214.36454     0.14783    90.00000   235.63546     0.14783
    30.40000    90.00000   214.35732     0.14771    90.00000   235.64268     0.14771
    30.50000    90.00000   214.35009     0.14758    90.00000   235.64991     0.14758
    30.60000    90.00000   214.34285     0.14746    90.00000   235.65715     0.14746
    30.70000    90.00000   214.33560     0.14733    90.00000   235.66440     0.14733
    30.80000    90.00000   214.32834     0.14720    90.00000   235.67166     0.14720
    30.90000    90.00000   214.32106     0.14708    90.00000   235.67894     0.14708
    31.00000    90.00000   214.31377     0.14695    90.00000   235.68623     0.14695
    31.10000    90.00000   214.30647     0.14683    90.00000   235.69353     0.14683
    31.20000    90.00000   214.29916     0.14670    90.00000   235.70084     0.14670
    31.30000    90.00000   214.29184     0.14657    90.00000   235.70816     0.14657
    31.40000    90.00000   214.28451     0.14645    90.00000   235.71549     0.14645
    31.50000    90.00000   214.27716     0.14632    90.00000   235.72284     0.14632
    31.60000    90.00000   214.26980     0.14620    90.00000   235.73020     0.14620
    31.70000    90.00000   214.26243     0.14607    90.00000   235.73757     0.14607
    31.80000    90.00000   214.25505     0.14594    90.00000   235.74495     0.14594
    31.90000    90.00000   214.24765     0.14582    90.00000   235.75235     0.14582
    32.00000    90.00000   214.24025     0.14569    90.00000   235.75975     0.14569
    32.10000    90.00000   214.23283     0.14557    90.00000   235.76717     0.14557
    32.20000    90.00000   214.22540     0.14544    90.00000   235.77460     0.14544
    32.30000    90.00000   214.21796     0.14531    90.00000   235.78204     0.14531
    32.40000    90.00000   214.21050     0.14519    90.00000   235.78950     0.14519
    32.50000    90.00000   214.20303     0.14506    90.00000   235.79697     0.14506
    32.60000    90.00000   214.19555     0.14494    90.00000   235.80445     0.14494
    32.70000    90.00000   214.18806     0.14481    90.00000   235.81194     0.14481
    32.80000    90.00000   214.18056     0.14468    90.00000   235.81944     0.14468
    32.90000    90.00000   214.17304     0.14456    90.00000   235.82696     0.14456
    33.00000    90.00000   214.16552     0.14443    90.00000   235.83448     0.14443
    33.10000    90.00000   214.15798     0.14431    90.00000   235.84202     0.14431
    33.20000    90.00000   214.15042     0.14418    90.00000   235.84958     0.14418
    33.30000    90.00000   214.14286     0.14405    90.00000   235.85714     0.14405
    33.40000    90.00000   214.13528     0.14393    90.00000   235.86472     0.14393
    33.50000    90.00000   214.12769     0.14380    90.00000   235.87231     0.14380
    33.60000    90.00000   214.12009     0.14368    90.00000   235.87991     0.14368
    33.70000    90.00000   214.11247     0.14355    90.00000   235.88753     0.14355
    33.80000    90.00000   214.10484     0.14343    90.00000   235.89516     0.14343
    33.90000    90.00000   214.09720     0.14330    90.00000   235.90280     0.14330
    34.00000    90.00000   214.08955     0.14317    90.00000   235.91045     0.14317
    34.10000    90.00000   214.08188     0.14305    90.00000   235.91812     0.14305
    34.20000    90.00000   214.07420     0.14292    90.00000   235.92580     0.14292
    34.30000    90.00000   214.06651     0.14280    90.00000   235.93349     0.14280
    34.40000    90.00000   214.05881     0.14267    90.00000   235.94119     0.14267
    34.50000    90.00000   214.05109     0.14255    90.00000   235.94891     0.14255
    34.60000    90.00000   214.04336     0.14242    90.00000   235.95664     0.14242
    34.70000    90.00000   214.03562     0.14229    90.00000   235.96438     0.14229
    34.80000    90.00000   214.02786     0.14217    90.00000   235.97214     0.14217
    34.90000    90.00000   214.02010     0.14204    90.00000   235.97990     0.14204
    35.00000    90.00000   214.01231     0.14192    90.00000   235.98769     0.14192
    35.10000    90.00000   214.00452     0.14179    90.00000   235.99548     0.14179
    35.20000    90.00000   213.99671     0.14167    90.00000   236.00329     0.14167
    35.30000    90.00000   213.98889     0.14154    90.00000   236.01111     0.14154
    35.40000    90.00000   213.98106     0.14141    90.00000   236.01894     0.14141
    35.50000    90.00000   213.97321     0.14129    90.00000   236.02679     0.14129
    35.60000    90.00000   213.96535     0.14116    90.00000   236.03465     0.14116
    35.70000    90.00000   213.95748     0.14104    90.00000   236.04252     0.14104
    35.80000    90.00000   213.94959     0.14091    90.00000   236.05041     0.14091
    35.90000    90.00000   213.94169     0.14079    90.00000   236.05831     0.14079
    36.00000    90.00000   213.93378     0.14066    90.00000   236.06622     0.14066
    36.10000    90.00000   213.92586     0.14054    90.00000   236.07414     0.14054
    36.20000    90.00000   213.91792     0.14041    90.00000   236.08208     0.14041
    36.30000    90.00000   213.90996     0.14028    90.00000   236.09004     0.14028
    36.40000    90.00000   213.90200     0.14016    90.00000   236.09800     0.14016
    36.50000    90.00000   213.89402     0.14003    90.00000   236.10598     0.14003
    36.60000    90.00000   213.88602     0.13991    90.00000   236.11398     0.13991
    36.70000    90.00000   213.87802     0.13978    90.00000   236.12198     0.13978
    36.80000    90.00000   213.87000     0.13966    90.00000   236.13000     0.13966
    36.90000    90.00000   213.86196     0.13953    90.00000   236.13804     0.13953
    37.00000    90.00000   213.85392     0.13941    90.00000   236.14608     0.13941
    37.10000    90.00000   213.84586     0.13928    90.00000   236.15414     0.13928
    37.20000    90.00000   213.83778     0.13916    90.00000   236.16222     0.13916
    37.30000    90.00000   213.82969     0.13903    90.00000   236.17031     0.13903
    37.40000    90.00000   213.82159     0.13891    90.00000   236.17841     0.13891
    37.50000    90.00000   213.81347     0.13878    90.00000   236.18653     0.13878
    37.60000    90.00000   213.80534     0.13866    90.00000   236.19466     0.13866
    37.70000    90.00000   213.79720     0.13853    90.00000   236.20280     0.13853
    37.80000    90.00000   213.78904     0.13840    90.00000   236.21096     0.13840
    37.90000    90.00000   213.78087     0.13828    90.00000   236.21913     0.13828
    38.00000    90.00000   213.77268     0.13815    90.00000   236.22732     0.13815
    38.10000    90.00000   213.76448     0.13803    90.00000   236.23552     0.13803
    38.20000    90.00000   213.75627     0.13790    90.00000   236.24373     0.13790
    38.30000    90.00000   213.74804     0.13778    90.00000   236.25196     0.13778
    38.40000    90.00000   213.73980     0.13765    90.00000   236.26020     0.13765
    38.50000    90.00000   213.73154     0.13753    90.00000   236.26846     0.13753
    38.60000    90.00000   213.72327     0.13740    90.00000   236.27673     0.13740
    38.70000    90.00000   213.71499     0.13728    90.00000   236.28501     0.13728
    38.80000    90.00000   213.70669     0.13715    90.00000   236.29331     0.13715
    38.90000    90.00000   213.69838     0.13703    90.00000   236.30162     0.13703
    39.00000    90.00000   213.69005     0.13690    90.00000   236.30995     0.13690
    39.10000    90.00000   213.68171     0.13678    90.00000   236.31829     0.13678
    39.20000    90.00000   213.67335     0.13665    90.00000   236.32665     0.13665
    39.30000    90.00000   213.66498     0.13653    90.00000   236.33502     0.13653
    39.40000    90.00000   213.65659     0.13640    90.00000   236.34341     0.13640
    39.50000    90.00000   213.64819     0.13628    90.00000   236.35181     0.13628
    39.60000    90.00000   213.63978     0.13615    90.00000   236.36022     0.13615
    39.70000    90.00000   213.63135     0.13603    90.00000   236.36865     0.13603
    39.80000    90.00000   213.62291     0.13590    90.00000   236.37709     0.13590
    39.90000    90.00000   213.61445     0.13578    90.00000   236.38555     0.13578
    40.00000    90.00000   213.60597     0.13565    90.00000   236.39403     0.13565
