 # applied field (T), theta (degree), phi (degree), abs for RE 3-4
     0.00000   179.81139   315.00000     4.37789   179.81139   225.00000     4.37789
     0.10000   179.65893   258.57177     4.37789   179.51396   225.00000     4.37784
     0.20000   179.40115   243.35714     4.37788   179.21636   225.00000     4.37777
     0.30000   179.08052   236.83554     4.37785   178.86901   225.00000     4.37769
     0.40000   178.80088   234.04784     4.37783   178.57101   225.00000     4.37760
     0.50000   178.51943   232.31652     4.37779   178.27279   225.00000     4.37751
     0.60000   178.23698   231.13864     4.37775   177.97434   225.00000     4.37742
     0.70000   177.90673   230.16636     4.37769   177.62591   225.00000     4.37729
     0.80000   177.62316   229.54780     4.37763   177.32690   225.00000     4.37717
     0.90000   177.33926   229.06088     4.37757   177.02762   225.00000     4.37705
     1.00000   177.05508   228.66764     4.37749   176.72804   225.00000     4.37692
     1.10000   176.72327   228.29486     4.37740   176.37821   225.00000     4.37675
     1.20000   176.43856   228.03039     4.37731   176.07794   225.00000     4.37660
     1.30000   176.15362   227.80489     4.37721   175.77732   225.00000     4.37645
     1.40000   175.82095   227.58049     4.37709   175.42621   225.00000     4.37625
     1.50000   175.53550   227.41457     4.37698   175.12479   225.00000     4.37608
     1.60000   175.24982   227.26844     4.37686   174.82297   225.00000     4.37590
     1.70000   174.91624   227.11856     4.37671   174.47041   225.00000     4.37568
     1.80000   174.63001   227.00475     4.37657   174.16768   225.00000     4.37548
     1.90000   174.34350   226.90233     4.37643   173.86452   225.00000     4.37527
     2.00000   174.00893   226.79508     4.37625   173.51032   225.00000     4.37502
     2.10000   173.72180   226.71212     4.37610   173.20615   225.00000     4.37480
     2.20000   173.38647   226.62430     4.37590   172.85074   225.00000     4.37453
     2.30000   173.09867   226.55570     4.37573   172.54549   225.00000     4.37430
     2.40000   172.76252   226.48244     4.37552   172.18879   225.00000     4.37401
     2.50000   172.47399   226.42475     4.37533   171.88240   225.00000     4.37376
     2.60000   172.13695   226.36268     4.37510   171.52433   225.00000     4.37345
     2.70000   171.79942   226.30559     4.37486   171.16549   225.00000     4.37314
     2.80000   171.50964   226.26016     4.37465   170.85720   225.00000     4.37287
     2.90000   171.17112   226.21084     4.37439   170.49688   225.00000     4.37254
     3.00000   170.83204   226.16505     4.37413   170.13572   225.00000     4.37220
     3.10000   170.54088   226.12832     4.37389   169.82541   225.00000     4.37190
     3.20000   170.20070   226.08815     4.37361   169.46265   225.00000     4.37155
     3.30000   169.85991   226.05056     4.37332   169.09902   225.00000     4.37119
     3.40000   169.51847   226.01533     4.37302   168.73447   225.00000     4.37082
     3.50000   169.17638   225.98222     4.37271   168.36900   225.00000     4.37044
     3.60000   168.83362   225.95106     4.37239   168.00258   225.00000     4.37005
     3.70000   168.49015   225.92166     4.37207   167.63520   225.00000     4.36966
     3.80000   168.14597   225.89388     4.37173   167.26683   225.00000     4.36926
     3.90000   167.80106   225.86758     4.37139   166.89747   225.00000     4.36885
     4.00000   167.40600   225.83920     4.37099   166.47419   225.00000     4.36838
     4.10000   167.05945   225.81570     4.37063   166.10263   225.00000     4.36796
     4.20000   166.71210   225.79334     4.37026   165.73002   225.00000     4.36753
     4.30000   166.31420   225.76910     4.36983   165.30298   225.00000     4.36704
     4.40000   165.96508   225.74893     4.36944   164.92807   225.00000     4.36659
     4.50000   165.56511   225.72700     4.36899   164.49837   225.00000     4.36609
     4.60000   165.16400   225.70615     4.36854   164.06722   225.00000     4.36557
     4.70000   164.81202   225.68874     4.36813   163.68867   225.00000     4.36511
     4.80000   164.40870   225.66973     4.36765   163.25475   225.00000     4.36459
     4.90000   164.00416   225.65160     4.36716   162.81934   225.00000     4.36405
     5.00000   163.54764   225.63217     4.36661   162.32779   225.00000     4.36345
     5.10000   163.14043   225.61570     4.36610   161.88915   225.00000     4.36291
     5.20000   162.73194   225.59992     4.36559   161.44898   225.00000     4.36236
     5.30000   162.27087   225.58296     4.36501   160.95203   225.00000     4.36175
     5.40000   161.80810   225.56677     4.36441   160.45311   225.00000     4.36113
     5.50000   161.34359   225.55129     4.36381   159.95222   225.00000     4.36050
     5.60000   160.87733   225.53648     4.36320   159.44933   225.00000     4.35988
     5.70000   160.40927   225.52228     4.36257   158.94446   225.00000     4.35925
     5.80000   159.88713   225.50719     4.36187   158.38125   225.00000     4.35855
     5.90000   159.36270   225.49277     4.36117   157.81558   225.00000     4.35786
     6.00000   158.83595   225.47896     4.36045   157.24746   225.00000     4.35717
     6.10000   158.25386   225.46444     4.35965   156.61980   225.00000     4.35641
     6.20000   157.72212   225.45180     4.35892   156.04657   225.00000     4.35572
     6.30000   157.08096   225.43730     4.35803   155.35571   225.00000     4.35491
     6.40000   156.43627   225.42346     4.35714   154.66144   225.00000     4.35410
     6.50000    90.00000   225.00000     4.33036    91.01143   225.00000     4.35290
     6.60000    90.00000   225.00000     4.33032    91.01135   225.00000     4.35286
     6.70000    90.00000   225.00000     4.33027    91.01126   225.00000     4.35282
     6.80000    90.00000   225.00000     4.33022    91.01118   225.00000     4.35277
     6.90000    90.00000   225.00000     4.33017    91.01110   225.00000     4.35273
     7.00000    90.00000   225.00000     4.33013    91.01102   225.00000     4.35268
     7.10000    90.00000   225.00000     4.33008    91.01094   225.00000     4.35264
     7.20000    90.00000   225.00000     4.33003    91.01085   225.00000     4.35259
     7.30000    90.00000   225.00000     4.32999    91.01077   225.00000     4.35255
     7.40000    90.00000   225.00000     4.32994    91.01069   225.00000     4.35250
     7.50000    90.00000   225.00000     4.32989    91.01061   225.00000     4.35246
     7.60000    90.00000   225.00000     4.32984    91.01052   225.00000     4.35241
     7.70000    90.00000   225.00000     4.32980    91.01044   225.00000     4.35237
     7.80000    90.00000   225.00000     4.32975    91.01036   225.00000     4.35232
     7.90000    90.00000   225.00000     4.32970    91.01028   225.00000     4.35228
     8.00000    90.00000   225.00000     4.32965    91.01020   225.00000     4.35223
     8.10000    90.00000   225.00000     4.32961    91.01012   225.00000     4.35219
     8.20000    90.00000   225.00000     4.32956    91.01003   225.00000     4.35215
     8.30000    90.00000   225.00000     4.32951    91.00995   225.00000     4.35210
     8.40000    90.00000   225.00000     4.32946    91.00987   225.00000     4.35206
     8.50000    90.00000   225.00000     4.32942    91.00979   225.00000     4.35201
     8.60000    90.00000   225.00000     4.32937    91.00971   225.00000     4.35197
     8.70000    90.00000   225.00000     4.32932    91.00963   225.00000     4.35192
     8.80000    90.00000   225.00000     4.32928    91.00954   225.00000     4.35188
     8.90000    90.00000   225.00000     4.32923    91.00946   225.00000     4.35183
     9.00000    90.00000   225.00000     4.32918    91.00938   225.00000     4.35179
     9.10000    90.00000   225.00000     4.32913    91.00930   225.00000     4.35174
     9.20000    90.00000   225.00000     4.32909    91.00922   225.00000     4.35170
     9.30000    90.00000   225.00000     4.32904    91.00914   225.00000     4.35165
     9.40000    90.00000   225.00000     4.32899    91.00905   225.00000     4.35161
     9.50000    90.00000   225.00000     4.32894    91.00897   225.00000     4.35156
     9.60000    90.00000   225.00000     4.32890    91.00889   225.00000     4.35152
     9.70000    90.00000   225.00000     4.32885    91.00881   225.00000     4.35147
     9.80000    90.00000   225.00000     4.32880    91.00873   225.00000     4.35143
     9.90000    90.00000   225.00000     4.32875    91.00865   225.00000     4.35138
    10.00000    90.00000   225.00000     4.32871    91.00857   225.00000     4.35134
    10.10000    90.00000   225.00000     4.32866    91.00849   225.00000     4.35129
    10.20000    90.00000   225.00000     4.32861    91.00841   225.00000     4.35125
    10.30000    90.00000   225.00000     4.32856    91.00832   225.00000     4.35121
    10.40000    90.00000   225.00000     4.32852    91.00824   225.00000     4.35116
    10.50000    90.00000   225.00000     4.32847    91.00816   225.00000     4.35112
    10.60000    90.00000   225.00000     4.32842    91.00808   225.00000     4.35107
    10.70000    90.00000   225.00000     4.32837    91.00800   225.00000     4.35103
    10.80000    90.00000   225.00000     4.32833    91.00792   225.00000     4.35098
    10.90000    90.00000   225.00000     4.32828    91.00784   225.00000     4.35094
    11.00000    90.00000   225.00000     4.32823    91.00776   225.00000     4.35089
    11.10000    90.00000   225.00000     4.32818    91.00768   225.00000     4.35085
    11.20000    90.00000   225.00000     4.32814    91.00760   225.00000     4.35080
    11.30000    90.00000   225.00000     4.32809    91.00752   225.00000     4.35076
    11.40000    90.00000   225.00000     4.32804    91.00743   225.00000     4.35071
    11.50000    90.00000   225.00000     4.32799    91.00735   225.00000     4.35067
    11.60000    90.00000   225.00000     4.32795    91.00727   225.00000     4.35062
    11.70000    90.00000   225.00000     4.32790    91.00719   225.00000     4.35058
    11.80000    90.00000   225.00000     4.32785    91.00711   225.00000     4.35053
    11.90000    90.00000   225.00000     4.32780    91.00703   225.00000     4.35049
    12.00000    90.00000   225.00000     4.32776    91.00695   225.00000     4.35044
    12.10000    90.00000   225.00000     4.32771    91.00687   225.00000     4.35040
    12.20000    90.00000   225.00000     4.32766    91.00679   225.00000     4.35035
    12.30000    90.00000   225.00000     4.32761    91.00671   225.00000     4.35031
    12.40000    90.00000   225.00000     4.32756    91.00663   225.00000     4.35026
    12.50000    90.00000   225.00000     4.32752    91.00655   225.00000     4.35022
    12.60000    90.00000   225.00000     4.32747    91.00647   225.00000     4.35017
    12.70000    90.00000   225.00000     4.32742    91.00639   225.00000     4.35013
    12.80000    90.00000   225.00000     4.32737    91.00631   225.00000     4.35008
    12.90000    90.00000   225.00000     4.32733    91.00623   225.00000     4.35004
    13.00000    90.00000   225.00000     4.32728    91.00615   225.00000     4.34999
    13.10000    90.00000   225.00000     4.32723    91.00607   225.00000     4.34995
    13.20000    90.00000   225.00000     4.32718    91.00599   225.00000     4.34990
    13.30000    90.00000   225.00000     4.32714    91.00591   225.00000     4.34986
    13.40000    90.00000   225.00000     4.32709    91.00583   225.00000     4.34981
    13.50000    90.00000   225.00000     4.32704    91.00575   225.00000     4.34977
    13.60000    90.00000   225.00000     4.32699    91.00567   225.00000     4.34972
    13.70000    90.00000   225.00000     4.32694    91.00559   225.00000     4.34968
    13.80000    90.00000   225.00000     4.32690    91.00551   225.00000     4.34963
    13.90000    90.00000   225.00000     4.32685    91.00543   225.00000     4.34959
    14.00000    90.00000   225.00000     4.32680    91.00535   225.00000     4.34954
    14.10000    90.00000   225.00000     4.32675    91.00527   225.00000     4.34950
    14.20000    90.00000   225.00000     4.32671    91.00519   225.00000     4.34945
    14.30000    90.00000   225.00000     4.32666    91.00511   225.00000     4.34941
    14.40000    90.00000   225.00000     4.32661    91.00503   225.00000     4.34936
    14.50000    90.00000   225.00000     4.32656    91.00495   225.00000     4.34932
    14.60000    90.00000   225.00000     4.32652    91.00487   225.00000     4.34927
    14.70000    90.00000   225.00000     4.32647    91.00479   225.00000     4.34923
    14.80000    90.00000   225.00000     4.32642    91.00471   225.00000     4.34918
    14.90000    90.00000   225.00000     4.32637    91.00463   225.00000     4.34914
    15.00000    90.00000   225.00000     4.32632    91.00455   225.00000     4.34909
    15.10000    90.00000   225.00000     4.32628    91.00447   225.00000     4.34905
    15.20000    90.00000   225.00000     4.32623    91.00439   225.00000     4.34900
    15.30000    90.00000   225.00000     4.32618    91.00431   225.00000     4.34896
    15.40000    90.00000   225.00000     4.32613    91.00423   225.00000     4.34891
    15.50000    90.00000   225.00000     4.32609    91.00416   225.00000     4.34887
    15.60000    90.00000   225.00000     4.32604    91.00408   225.00000     4.34882
    15.70000    90.00000   225.00000     4.32599    91.00400   225.00000     4.34878
    15.80000    90.00000   225.00000     4.32594    91.00392   225.00000     4.34873
    15.90000    90.00000   225.00000     4.32589    91.00384   225.00000     4.34869
    16.00000    90.00000   225.00000     4.32585    91.00376   225.00000     4.34864
    16.10000    90.00000   225.00000     4.32580    91.00368   225.00000     4.34859
    16.20000    90.00000   225.00000     4.32575    91.00360   225.00000     4.34855
    16.30000    90.00000   225.00000     4.32570    91.00352   225.00000     4.34850
    16.40000    90.00000   225.00000     4.32565    91.00344   225.00000     4.34846
    16.50000    90.00000   225.00000     4.32561    91.00336   225.00000     4.34841
    16.60000    90.00000   225.00000     4.32556    91.00329   225.00000     4.34837
    16.70000    90.00000   225.00000     4.32551    91.00321   225.00000     4.34832
    16.80000    90.00000   225.00000     4.32546    91.00313   225.00000     4.34828
    16.90000    90.00000   225.00000     4.32542    91.00305   225.00000     4.34823
    17.00000    90.00000   225.00000     4.32537    91.00297   225.00000     4.34819
    17.10000    90.00000   225.00000     4.32532    91.00289   225.00000     4.34814
    17.20000    90.00000   225.00000     4.32527    91.00281   225.00000     4.34810
    17.30000    90.00000   225.00000     4.32522    91.00273   225.00000     4.34805
    17.40000    90.00000   225.00000     4.32518    91.00266   225.00000     4.34801
    17.50000    90.00000   225.00000     4.32513    91.00258   225.00000     4.34796
    17.60000    90.00000   225.00000     4.32508    91.00250   225.00000     4.34792
    17.70000    90.00000   225.00000     4.32503    91.00242   225.00000     4.34787
    17.80000    90.00000   225.00000     4.32498    91.00234   225.00000     4.34783
    17.90000    90.00000   225.00000     4.32494    91.00226   225.00000     4.34778
    18.00000    90.00000   225.00000     4.32489    91.00218   225.00000     4.34774
    18.10000    90.00000   225.00000     4.32484    91.00211   225.00000     4.34769
    18.20000    90.00000   225.00000     4.32479    91.00203   225.00000     4.34764
    18.30000    90.00000   225.00000     4.32474    91.00195   225.00000     4.34760
    18.40000    90.00000   225.00000     4.32470    91.00187   225.00000     4.34755
    18.50000    90.00000   225.00000     4.32465    91.00179   225.00000     4.34751
    18.60000    90.00000   225.00000     4.32460    91.00171   225.00000     4.34746
    18.70000    90.00000   225.00000     4.32455    91.00164   225.00000     4.34742
    18.80000    90.00000   225.00000     4.32450    91.00156   225.00000     4.34737
    18.90000    90.00000   225.00000     4.32446    91.00148   225.00000     4.34733
    19.00000    90.00000   225.00000     4.32441    91.00140   225.00000     4.34728
    19.10000    90.00000   225.00000     4.32436    91.00132   225.00000     4.34724
    19.20000    90.00000   225.00000     4.32431    91.00124   225.00000     4.34719
    19.30000    90.00000   225.00000     4.32426    91.00117   225.00000     4.34715
    19.40000    90.00000   225.00000     4.32422    91.00109   225.00000     4.34710
    19.50000    90.00000   225.00000     4.32417    91.00101   225.00000     4.34706
    19.60000    90.00000   225.00000     4.32412    91.00093   225.00000     4.34701
    19.70000    90.00000   225.00000     4.32407    91.00085   225.00000     4.34696
    19.80000    90.00000   225.00000     4.32402    91.00078   225.00000     4.34692
    19.90000    90.00000   225.00000     4.32398    91.00070   225.00000     4.34687
    20.00000    90.00000   225.00000     4.32393    91.00062   225.00000     4.34683
    20.10000    90.00000   225.00000     4.32388    91.00054   225.00000     4.34678
    20.20000    90.00000   225.00000     4.32383    91.00047   225.00000     4.34674
    20.30000    90.00000   225.00000     4.32378    91.00039   225.00000     4.34669
    20.40000    90.00000   225.00000     4.32373    91.00031   225.00000     4.34665
    20.50000    90.00000   225.00000     4.32369    91.00023   225.00000     4.34660
    20.60000    90.00000   225.00000     4.32364    91.00015   225.00000     4.34656
    20.70000    90.00000   225.00000     4.32359    91.00008   225.00000     4.34651
    20.80000    90.00000   225.00000     4.32354    91.00000   225.00000     4.34647
    20.90000    90.00000   225.00000     4.32349    90.99992   225.00000     4.34642
    21.00000    90.00000   225.00000     4.32345    90.99984   225.00000     4.34637
    21.10000    90.00000   225.00000     4.32340    90.99977   225.00000     4.34633
    21.20000    90.00000   225.00000     4.32335    90.99969   225.00000     4.34628
    21.30000    90.00000   225.00000     4.32330    90.99961   225.00000     4.34624
    21.40000    90.00000   225.00000     4.32325    90.99953   225.00000     4.34619
    21.50000    90.00000   225.00000     4.32320    90.99946   225.00000     4.34615
    21.60000    90.00000   225.00000     4.32316    90.99938   225.00000     4.34610
    21.70000    90.00000   225.00000     4.32311    90.99930   225.00000     4.34606
    21.80000    90.00000   225.00000     4.32306    90.99923   225.00000     4.34601
    21.90000    90.00000   225.00000     4.32301    90.99915   225.00000     4.34597
    22.00000    90.00000   225.00000     4.32296    90.99907   225.00000     4.34592
    22.10000    90.00000   225.00000     4.32292    90.99899   225.00000     4.34587
    22.20000    90.00000   225.00000     4.32287    90.99892   225.00000     4.34583
    22.30000    90.00000   225.00000     4.32282    90.99884   225.00000     4.34578
    22.40000    90.00000   225.00000     4.32277    90.99876   225.00000     4.34574
    22.50000    90.00000   225.00000     4.32272    90.99869   225.00000     4.34569
    22.60000    90.00000   225.00000     4.32267    90.99861   225.00000     4.34565
    22.70000    90.00000   225.00000     4.32263    90.99853   225.00000     4.34560
    22.80000    90.00000   225.00000     4.32258    90.99846   225.00000     4.34556
    22.90000    90.00000   225.00000     4.32253    90.99838   225.00000     4.34551
    23.00000    90.00000   225.00000     4.32248    90.99830   225.00000     4.34546
    23.10000    90.00000   225.00000     4.32243    90.99822   225.00000     4.34542
    23.20000    90.00000   225.00000     4.32238    90.99815   225.00000     4.34537
    23.30000    90.00000   225.00000     4.32234    90.99807   225.00000     4.34533
    23.40000    90.00000   225.00000     4.32229    90.99799   225.00000     4.34528
    23.50000    90.00000   225.00000     4.32224    90.99792   225.00000     4.34524
    23.60000    90.00000   225.00000     4.32219    90.99784   225.00000     4.34519
    23.70000    90.00000   225.00000     4.32214    90.99776   225.00000     4.34514
    23.80000    90.00000   225.00000     4.32209    90.99769   225.00000     4.34510
    23.90000    90.00000   225.00000     4.32205    90.99761   225.00000     4.34505
    24.00000    90.00000   225.00000     4.32200    90.99753   225.00000     4.34501
    24.10000    90.00000   225.00000     4.32195    90.99746   225.00000     4.34496
    24.20000    90.00000   225.00000     4.32190    90.99738   225.00000     4.34492
    24.30000    90.00000   225.00000     4.32185    90.99731   225.00000     4.34487
    24.40000    90.00000   225.00000     4.32180    90.99723   225.00000     4.34483
    24.50000    90.00000   225.00000     4.32176    90.99715   225.00000     4.34478
    24.60000    90.00000   225.00000     4.32171    90.99708   225.00000     4.34473
    24.70000    90.00000   225.00000     4.32166    90.99700   225.00000     4.34469
    24.80000    90.00000   225.00000     4.32161    90.99692   225.00000     4.34464
    24.90000    90.00000   225.00000     4.32156    90.99685   225.00000     4.34460
    25.00000    90.00000   225.00000     4.32151    90.99677   225.00000     4.34455
    25.10000    90.00000   225.00000     4.32147    90.99670   225.00000     4.34451
    25.20000    90.00000   225.00000     4.32142    90.99662   225.00000     4.34446
    25.30000    90.00000   225.00000     4.32137    90.99654   225.00000     4.34441
    25.40000    90.00000   225.00000     4.32132    90.99647   225.00000     4.34437
    25.50000    90.00000   225.00000     4.32127    90.99639   225.00000     4.34432
    25.60000    90.00000   225.00000     4.32122    90.99631   225.00000     4.34428
    25.70000    90.00000   225.00000     4.32118    90.99624   225.00000     4.34423
    25.80000    90.00000   225.00000     4.32113    90.99616   225.00000     4.34419
    25.90000    90.00000   225.00000     4.32108    90.99609   225.00000     4.34414
    26.00000    90.00000   225.00000     4.32103    90.99601   225.00000     4.34409
    26.10000    90.00000   225.00000     4.32098    90.99594   225.00000     4.34405
    26.20000    90.00000   225.00000     4.32093    90.99586   225.00000     4.34400
    26.30000    90.00000   225.00000     4.32088    90.99578   225.00000     4.34396
    26.40000    90.00000   225.00000     4.32084    90.99571   225.00000     4.34391
    26.50000    90.00000   225.00000     4.32079    90.99563   225.00000     4.34387
    26.60000    90.00000   225.00000     4.32074    90.99556   225.00000     4.34382
    26.70000    90.00000   225.00000     4.32069    90.99548   225.00000     4.34377
    26.80000    90.00000   225.00000     4.32064    90.99541   225.00000     4.34373
    26.90000    90.00000   225.00000     4.32059    90.99533   225.00000     4.34368
    27.00000    90.00000   225.00000     4.32054    90.99525   225.00000     4.34364
    27.10000    90.00000   225.00000     4.32050    90.99518   225.00000     4.34359
    27.20000    90.00000   225.00000     4.32045    90.99510   225.00000     4.34354
    27.30000    90.00000   225.00000     4.32040    90.99503   225.00000     4.34350
    27.40000    90.00000   225.00000     4.32035    90.99495   225.00000     4.34345
    27.50000    90.00000   225.00000     4.32030    90.99488   225.00000     4.34341
    27.60000    90.00000   225.00000     4.32025    90.99480   225.00000     4.34336
    27.70000    90.00000   225.00000     4.32021    90.99473   225.00000     4.34332
    27.80000    90.00000   225.00000     4.32016    90.99465   225.00000     4.34327
    27.90000    90.00000   225.00000     4.32011    90.99458   225.00000     4.34322
    28.00000    90.00000   225.00000     4.32006    90.99450   225.00000     4.34318
    28.10000    90.00000   225.00000     4.32001    90.99443   225.00000     4.34313
    28.20000    90.00000   225.00000     4.31996    90.99435   225.00000     4.34309
    28.30000    90.00000   225.00000     4.31991    90.99427   225.00000     4.34304
    28.40000    90.00000   225.00000     4.31986    90.99420   225.00000     4.34299
    28.50000    90.00000   225.00000     4.31982    90.99412   225.00000     4.34295
    28.60000    90.00000   225.00000     4.31977    90.99405   225.00000     4.34290
    28.70000    90.00000   225.00000     4.31972    90.99397   225.00000     4.34286
    28.80000    90.00000   225.00000     4.31967    90.99390   225.00000     4.34281
    28.90000    90.00000   225.00000     4.31962    90.99382   225.00000     4.34277
    29.00000    90.00000   225.00000     4.31957    90.99375   225.00000     4.34272
    29.10000    90.00000   225.00000     4.31952    90.99367   225.00000     4.34267
    29.20000    90.00000   225.00000     4.31948    90.99360   225.00000     4.34263
    29.30000    90.00000   225.00000     4.31943    90.99353   225.00000     4.34258
    29.40000    90.00000   225.00000     4.31938    90.99345   225.00000     4.34254
    29.50000    90.00000   225.00000     4.31933    90.99338   225.00000     4.34249
    29.60000    90.00000   225.00000     4.31928    90.99330   225.00000     4.34244
    29.70000    90.00000   225.00000     4.31923    90.99323   225.00000     4.34240
    29.80000    90.00000   225.00000     4.31918    90.99315   225.00000     4.34235
    29.90000    90.00000   225.00000     4.31913    90.99308   225.00000     4.34231
    30.00000    90.00000   225.00000     4.31909    90.99300   225.00000     4.34226
    30.10000    90.00000   225.00000     4.31904    90.99293   225.00000     4.34221
    30.20000    90.00000   225.00000     4.31899    90.99285   225.00000     4.34217
    30.30000    90.00000   225.00000     4.31894    90.99278   225.00000     4.34212
    30.40000    90.00000   225.00000     4.31889    90.99270   225.00000     4.34208
    30.50000    90.00000   225.00000     4.31884    90.99263   225.00000     4.34203
    30.60000    90.00000   225.00000     4.31879    90.99256   225.00000     4.34198
    30.70000    90.00000   225.00000     4.31874    90.99248   225.00000     4.34194
    30.80000    90.00000   225.00000     4.31870    90.99241   225.00000     4.34189
    30.90000    90.00000   225.00000     4.31865    90.99233   225.00000     4.34185
    31.00000    90.00000   225.00000     4.31860    90.99226   225.00000     4.34180
    31.10000    90.00000   225.00000     4.31855    90.99218   225.00000     4.34175
    31.20000    90.00000   225.00000     4.31850    90.99211   225.00000     4.34171
    31.30000    90.00000   225.00000     4.31845    90.99204   225.00000     4.34166
    31.40000    90.00000   225.00000     4.31840    90.99196   225.00000     4.34162
    31.50000    90.00000   225.00000     4.31835    90.99189   225.00000     4.34157
    31.60000    90.00000   225.00000     4.31831    90.99181   225.00000     4.34152
    31.70000    90.00000   225.00000     4.31826    90.99174   225.00000     4.34148
    31.80000    90.00000   225.00000     4.31821    90.99166   225.00000     4.34143
    31.90000    90.00000   225.00000     4.31816    90.99159   225.00000     4.34139
    32.00000    90.00000   225.00000     4.31811    90.99152   225.00000     4.34134
    32.10000    90.00000   225.00000     4.31806    90.99144   225.00000     4.34129
    32.20000    90.00000   225.00000     4.31801    90.99137   225.00000     4.34125
    32.30000    90.00000   225.00000     4.31796    90.99130   225.00000     4.34120
    32.40000    90.00000   225.00000     4.31791    90.99122   225.00000     4.34115
    32.50000    90.00000   225.00000     4.31787    90.99115   225.00000     4.34111
    32.60000    90.00000   225.00000     4.31782    90.99107   225.00000     4.34106
    32.70000    90.00000   225.00000     4.31777    90.99100   225.00000     4.34102
    32.80000    90.00000   225.00000     4.31772    90.99093   225.00000     4.34097
    32.90000    90.00000   225.00000     4.31767    90.99085   225.00000     4.34092
    33.00000    90.00000   225.00000     4.31762    90.99078   225.00000     4.34088
    33.10000    90.00000   225.00000     4.31757    90.99071   225.00000     4.34083
    33.20000    90.00000   225.00000     4.31752    90.99063   225.00000     4.34079
    33.30000    90.00000   225.00000     4.31747    90.99056   225.00000     4.34074
    33.40000    90.00000   225.00000     4.31743    90.99048   225.00000     4.34069
    33.50000    90.00000   225.00000     4.31738    90.99041   225.00000     4.34065
    33.60000    90.00000   225.00000     4.31733    90.99034   225.00000     4.34060
    33.70000    90.00000   225.00000     4.31728    90.99026   225.00000     4.34055
    33.80000    90.00000   225.00000     4.31723    90.99019   225.00000     4.34051
    33.90000    90.00000   225.00000     4.31718    90.99012   225.00000     4.34046
    34.00000    90.00000   225.00000     4.31713    90.99004   225.00000     4.34042
    34.10000    90.00000   225.00000     4.31708    90.98997   225.00000     4.34037
    34.20000    90.00000   225.00000     4.31703    90.98990   225.00000     4.34032
    34.30000    90.00000   225.00000     4.31699    90.98982   225.00000     4.34028
    34.40000    90.00000   225.00000     4.31694    90.98975   225.00000     4.34023
    34.50000    90.00000   225.00000     4.31689    90.98968   225.00000     4.34018
    34.60000    90.00000   225.00000     4.31684    90.98960   225.00000     4.34014
    34.70000    90.00000   225.00000     4.31679    90.98953   225.00000     4.34009
    34.80000    90.00000   225.00000     4.31674    90.98946   225.00000     4.34005
    34.90000    90.00000   225.00000     4.31669    90.98939   225.00000     4.34000
    35.00000    90.00000   225.00000     4.31664    90.98931   225.00000     4.33995
    35.10000    90.00000   225.00000     4.31659    90.98924   225.00000     4.33991
    35.20000    90.00000   225.00000     4.31654    90.98917   225.00000     4.33986
    35.30000    90.00000   225.00000     4.31649    90.98909   225.00000     4.33981
    35.40000    90.00000   225.00000     4.31645    90.98902   225.00000     4.33977
    35.50000    90.00000   225.00000     4.31640    90.98895   225.00000     4.33972
    35.60000    90.00000   225.00000     4.31635    90.98887   225.00000     4.33968
    35.70000    90.00000   225.00000     4.31630    90.98880   225.00000     4.33963
    35.80000    90.00000   225.00000     4.31625    90.98873   225.00000     4.33958
    35.90000    90.00000   225.00000     4.31620    90.98866   225.00000     4.33954
    36.00000    90.00000   225.00000     4.31615    90.98858   225.00000     4.33949
    36.10000    90.00000   225.00000     4.31610    90.98851   225.00000     4.33944
    36.20000    90.00000   225.00000     4.31605    90.98844   225.00000     4.33940
    36.30000    90.00000   225.00000     4.31600    90.98837   225.00000     4.33935
    36.40000    90.00000   225.00000     4.31595    90.98829   225.00000     4.33930
    36.50000    90.00000   225.00000     4.31591    90.98822   225.00000     4.33926
    36.60000    90.00000   225.00000     4.31586    90.98815   225.00000     4.33921
    36.70000    90.00000   225.00000     4.31581    90.98808   225.00000     4.33917
    36.80000    90.00000   225.00000     4.31576    90.98800   225.00000     4.33912
    36.90000    90.00000   225.00000     4.31571    90.98793   225.00000     4.33907
    37.00000    90.00000   225.00000     4.31566    90.98786   225.00000     4.33903
    37.10000    90.00000   225.00000     4.31561    90.98779   225.00000     4.33898
    37.20000    90.00000   225.00000     4.31556    90.98771   225.00000     4.33893
    37.30000    90.00000   225.00000     4.31551    90.98764   225.00000     4.33889
    37.40000    90.00000   225.00000     4.31546    90.98757   225.00000     4.33884
    37.50000    90.00000   225.00000     4.31541    90.98750   225.00000     4.33879
    37.60000    90.00000   225.00000     4.31536    90.98742   225.00000     4.33875
    37.70000    90.00000   225.00000     4.31532    90.98735   225.00000     4.33870
    37.80000    90.00000   225.00000     4.31527    90.98728   225.00000     4.33866
    37.90000    90.00000   225.00000     4.31522    90.98721   225.00000     4.33861
    38.00000    90.00000   225.00000     4.31517    90.98714   225.00000     4.33856
    38.10000    90.00000   225.00000     4.31512    90.98706   225.00000     4.33852
    38.20000    90.00000   225.00000     4.31507    90.98699   225.00000     4.33847
    38.30000    90.00000   225.00000     4.31502    90.98692   225.00000     4.33842
    38.40000    90.00000   225.00000     4.31497    90.98685   225.00000     4.33838
    38.50000    90.00000   225.00000     4.31492    90.98678   225.00000     4.33833
    38.60000    90.00000   225.00000     4.31487    90.98670   225.00000     4.33828
    38.70000    90.00000   225.00000     4.31482    90.98663   225.00000     4.33824
    38.80000    90.00000   225.00000     4.31477    90.98656   225.00000     4.33819
    38.90000    90.00000   225.00000     4.31472    90.98649   225.00000     4.33814
    39.00000    90.00000   225.00000     4.31468    90.98642   225.00000     4.33810
    39.10000    90.00000   225.00000     4.31463    90.98634   225.00000     4.33805
    39.20000    90.00000   225.00000     4.31458    90.98627   225.00000     4.33800
    39.30000    90.00000   225.00000     4.31453    90.98620   225.00000     4.33796
    39.40000    90.00000   225.00000     4.31448    90.98613   225.00000     4.33791
    39.50000    90.00000   225.00000     4.31443    90.98606   225.00000     4.33786
    39.60000    90.00000   225.00000     4.31438    90.98599   225.00000     4.33782
    39.70000    90.00000   225.00000     4.31433    90.98591   225.00000     4.33777
    39.80000    90.00000   225.00000     4.31428    90.98584   225.00000     4.33773
    39.90000    90.00000   225.00000     4.31423    90.98577   225.00000     4.33768
    40.00000    90.00000   225.00000     4.31418    90.98570   225.00000     4.33763
