 # applied field (T), theta (degree), phi (degree), abs for RE 3-4
     0.00000     0.00000     0.00000     3.60675     0.00000     0.00000     3.60675
     0.10000     0.76416   360.00000     3.60671     0.77749   360.00000     3.60670
     0.20000     1.52841   360.00000     3.60660     1.55509   360.00000     3.60655
     0.30000     2.34365   360.00000     3.60639     2.38455   360.00000     3.60627
     0.40000     3.10844   360.00000     3.60612     3.16268   360.00000     3.60591
     0.50000     3.87365   360.00000     3.60577     3.94122   360.00000     3.60544
     0.60000     4.63936   360.00000     3.60535     4.72027   360.00000     3.60488
     0.70000     5.45660   360.00000     3.60482     5.55174   360.00000     3.60417
     0.80000     6.22369   360.00000     3.60424     6.33216   360.00000     3.60340
     0.90000     7.04261   360.00000     3.60353     7.16531   360.00000     3.60247
     1.00000     7.81147   360.00000     3.60280     7.94752   360.00000     3.60150
     1.10000     8.63251   360.00000     3.60193     8.78280   360.00000     3.60036
     1.20000     9.40354   360.00000     3.60104     9.56719   360.00000     3.59920
     1.30000    10.22710   360.00000     3.60001    10.40501   360.00000     3.59786
     1.40000    11.05211   360.00000     3.59889    11.24430   360.00000     3.59642
     1.50000    11.87869   360.00000     3.59768    12.08516   360.00000     3.59488
     1.60000    12.70691   360.00000     3.59640    12.92771   360.00000     3.59325
     1.70000    13.53690   360.00000     3.59502    13.77203   360.00000     3.59152
     1.80000    14.36872   360.00000     3.59357    14.61822   360.00000     3.58970
     1.90000    15.25447   360.00000     3.59193    15.51928   360.00000     3.58767
     2.00000    16.09037   360.00000     3.59030    16.36963   360.00000     3.58568
     2.10000    16.98065   360.00000     3.58847    17.27529   360.00000     3.58347
     2.20000    17.87338   360.00000     3.58655    18.18347   360.00000     3.58118
     2.30000    18.76867   360.00000     3.58453    19.09426   360.00000     3.57880
     2.40000    19.71933   360.00000     3.58229    20.06140   360.00000     3.57620
     2.50000    20.62013   360.00000     3.58007    20.97782   360.00000     3.57367
     2.60000    21.57679   360.00000     3.57762    21.95110   360.00000     3.57091
     2.70000    22.53665   360.00000     3.57506    22.92765   360.00000     3.56809
     2.80000    23.49980   360.00000     3.57239    23.90756   360.00000     3.56520
     2.90000    24.51993   360.00000     3.56945    24.94547   360.00000     3.56208
     3.00000    25.54388   360.00000     3.56639    25.98725   360.00000     3.55891
     3.10000    26.57170   360.00000     3.56320    27.03296   360.00000     3.55569
     3.20000    27.65772   360.00000     3.55971    28.13787   360.00000     3.55225
     3.30000    28.74818   360.00000     3.55608    29.24724   360.00000     3.54876
     3.40000    29.89785   360.00000     3.55210    30.41676   360.00000     3.54507
     3.50000    31.05254   360.00000     3.54797    31.59125   360.00000     3.54136
     3.60000    32.21230   360.00000     3.54368    32.77071   360.00000     3.53763
     3.70000    33.43265   360.00000     3.53901    34.01154   360.00000     3.53371
     3.80000    34.71442   360.00000     3.53393    35.31443   360.00000     3.52962
     3.90000    36.05848   360.00000     3.52843    36.68013   360.00000     3.52537
     4.00000    37.40940   360.00000     3.52271    38.05213   360.00000     3.52115
     4.10000    38.82387   360.00000     3.51652    39.48780   360.00000     3.51680
     4.20000    40.30283   360.00000     3.50985    40.98779   360.00000     3.51233
     4.30000    41.84727   360.00000     3.50267    42.55273   360.00000     3.50779
     4.40000    43.51586   360.00000     3.49469    44.24150   360.00000     3.50301
     4.50000    45.25274   360.00000     3.48615    45.99689   360.00000     3.49821
     4.60000    47.05902   360.00000     3.47706    47.81935   360.00000     3.49342
     4.70000    49.05336   360.00000     3.46682    49.82750   360.00000     3.48838
     4.80000    51.18015   360.00000     3.45572    51.96383   360.00000     3.48331
     4.90000    53.44172   360.00000     3.44382    54.22920   360.00000     3.47827
     5.00000    56.02085   360.00000     3.43024    56.80416   360.00000     3.47298
     5.10000    58.80263   360.00000     3.41578    59.57093   360.00000     3.46782
     5.20000    62.03505   360.00000     3.39948    62.77206   360.00000     3.46251
     5.30000    65.85032   360.00000     3.38137    66.53180   360.00000     3.45718
     5.40000    70.57056   360.00000     3.36134    71.15762   360.00000     3.45189
     5.50000    77.28027   360.00000     3.33889    77.69213   360.00000     3.44663
     5.60000    90.00000   360.00000     3.32109    90.00000   360.00000     3.44293
     5.70000    90.00000   360.00000     3.32122    90.00000   360.00000     3.44304
     5.80000    90.00000   360.00000     3.32134    90.00000   360.00000     3.44316
     5.90000    90.00000   360.00000     3.32146    90.00000   360.00000     3.44327
     6.00000    90.00000   360.00000     3.32158    90.00000   360.00000     3.44338
     6.10000    90.00000   360.00000     3.32170    90.00000   360.00000     3.44350
     6.20000    90.00000   360.00000     3.32182    90.00000   360.00000     3.44361
     6.30000    90.00000   360.00000     3.32194    90.00000   360.00000     3.44373
     6.40000    90.00000   360.00000     3.32206    90.00000   360.00000     3.44384
     6.50000    90.00000   360.00000     3.32219    90.00000   360.00000     3.44395
     6.60000    90.00000   360.00000     3.32231    90.00000   360.00000     3.44407
     6.70000    90.00000   360.00000     3.32243    90.00000   360.00000     3.44418
     6.80000    90.00000   360.00000     3.32255    90.00000   360.00000     3.44430
     6.90000    90.00000   360.00000     3.32267    90.00000   360.00000     3.44441
     7.00000    90.00000   360.00000     3.32279    90.00000   360.00000     3.44452
     7.10000    90.00000   360.00000     3.32291    90.00000   360.00000     3.44464
     7.20000    90.00000   360.00000     3.32303    90.00000   360.00000     3.44475
     7.30000    90.00000   360.00000     3.32315    90.00000   360.00000     3.44486
     7.40000    90.00000   360.00000     3.32327    90.00000   360.00000     3.44498
     7.50000    90.00000   360.00000     3.32340    90.00000   360.00000     3.44509
     7.60000    90.00000   360.00000     3.32352    90.00000   360.00000     3.44521
     7.70000    90.00000   360.00000     3.32364    90.00000   360.00000     3.44532
     7.80000    90.00000   360.00000     3.32376    90.00000   360.00000     3.44543
     7.90000    90.00000   360.00000     3.32388    90.00000   360.00000     3.44555
     8.00000    90.00000   360.00000     3.32400    90.00000   360.00000     3.44566
     8.10000    90.00000   360.00000     3.32412    90.00000   360.00000     3.44577
     8.20000    90.00000   360.00000     3.32424    90.00000   360.00000     3.44589
     8.30000    90.00000   360.00000     3.32436    90.00000   360.00000     3.44600
     8.40000    90.00000   360.00000     3.32448    90.00000   360.00000     3.44611
     8.50000    90.00000   360.00000     3.32460    90.00000   360.00000     3.44623
     8.60000    90.00000   360.00000     3.32472    90.00000   360.00000     3.44634
     8.70000    90.00000   360.00000     3.32484    90.00000   360.00000     3.44645
     8.80000    90.00000   360.00000     3.32496    90.00000   360.00000     3.44657
     8.90000    90.00000   360.00000     3.32508    90.00000   360.00000     3.44668
     9.00000    90.00000   360.00000     3.32520    90.00000   360.00000     3.44679
     9.10000    90.00000   360.00000     3.32532    90.00000   360.00000     3.44691
     9.20000    90.00000   360.00000     3.32544    90.00000   360.00000     3.44702
     9.30000    90.00000   360.00000     3.32557    90.00000   360.00000     3.44713
     9.40000    90.00000   360.00000     3.32569    90.00000   360.00000     3.44724
     9.50000    90.00000   360.00000     3.32581    90.00000   360.00000     3.44736
     9.60000    90.00000   360.00000     3.32593    90.00000   360.00000     3.44747
     9.70000    90.00000   360.00000     3.32605    90.00000   360.00000     3.44758
     9.80000    90.00000   360.00000     3.32617    90.00000   360.00000     3.44770
     9.90000    90.00000   360.00000     3.32629    90.00000   360.00000     3.44781
    10.00000    90.00000   360.00000     3.32641    90.00000   360.00000     3.44792
    10.10000    90.00000   360.00000     3.32653    90.00000   360.00000     3.44804
    10.20000    90.00000   360.00000     3.32665    90.00000   360.00000     3.44815
    10.30000    90.00000   360.00000     3.32677    90.00000   360.00000     3.44826
    10.40000    90.00000   360.00000     3.32689    90.00000   360.00000     3.44837
    10.50000    90.00000   360.00000     3.32701    90.00000   360.00000     3.44849
    10.60000    90.00000   360.00000     3.32713    90.00000   360.00000     3.44860
    10.70000    90.00000   360.00000     3.32725    90.00000   360.00000     3.44871
    10.80000    90.00000   360.00000     3.32737    90.00000   360.00000     3.44882
    10.90000    90.00000   360.00000     3.32749    90.00000   360.00000     3.44894
    11.00000    90.00000   360.00000     3.32761    90.00000   360.00000     3.44905
    11.10000    90.00000   360.00000     3.32772    90.00000   360.00000     3.44916
    11.20000    90.00000   360.00000     3.32784    90.00000   360.00000     3.44927
    11.30000    90.00000   360.00000     3.32796    90.00000   360.00000     3.44939
    11.40000    90.00000   360.00000     3.32808    90.00000   360.00000     3.44950
    11.50000    90.00000   360.00000     3.32820    90.00000   360.00000     3.44961
    11.60000    90.00000   360.00000     3.32832    90.00000   360.00000     3.44972
    11.70000    90.00000   360.00000     3.32844    90.00000   360.00000     3.44984
    11.80000    90.00000   360.00000     3.32856    90.00000   360.00000     3.44995
    11.90000    90.00000   360.00000     3.32868    90.00000   360.00000     3.45006
    12.00000    90.00000   360.00000     3.32880    90.00000   360.00000     3.45017
    12.10000    90.00000   360.00000     3.32892    90.00000   360.00000     3.45029
    12.20000    90.00000   360.00000     3.32904    90.00000   360.00000     3.45040
    12.30000    90.00000   360.00000     3.32916    90.00000   360.00000     3.45051
    12.40000    90.00000   360.00000     3.32928    90.00000   360.00000     3.45062
    12.50000    90.00000   360.00000     3.32940    90.00000   360.00000     3.45073
    12.60000    90.00000   360.00000     3.32952    90.00000   360.00000     3.45085
    12.70000    90.00000   360.00000     3.32964    90.00000   360.00000     3.45096
    12.80000    90.00000   360.00000     3.32976    90.00000   360.00000     3.45107
    12.90000    90.00000   360.00000     3.32988    90.00000   360.00000     3.45118
    13.00000    90.00000   360.00000     3.32999    90.00000   360.00000     3.45129
    13.10000    90.00000   360.00000     3.33011    90.00000   360.00000     3.45141
    13.20000    90.00000   360.00000     3.33023    90.00000   360.00000     3.45152
    13.30000    90.00000   360.00000     3.33035    90.00000   360.00000     3.45163
    13.40000    90.00000   360.00000     3.33047    90.00000   360.00000     3.45174
    13.50000    90.00000   360.00000     3.33059    90.00000   360.00000     3.45185
    13.60000    90.00000   360.00000     3.33071    90.00000   360.00000     3.45196
    13.70000    90.00000   360.00000     3.33083    90.00000   360.00000     3.45208
    13.80000    90.00000   360.00000     3.33095    90.00000   360.00000     3.45219
    13.90000    90.00000   360.00000     3.33107    90.00000   360.00000     3.45230
    14.00000    90.00000   360.00000     3.33118    90.00000   360.00000     3.45241
    14.10000    90.00000   360.00000     3.33130    90.00000   360.00000     3.45252
    14.20000    90.00000   360.00000     3.33142    90.00000   360.00000     3.45263
    14.30000    90.00000   360.00000     3.33154    90.00000   360.00000     3.45275
    14.40000    90.00000   360.00000     3.33166    90.00000   360.00000     3.45286
    14.50000    90.00000   360.00000     3.33178    90.00000   360.00000     3.45297
    14.60000    90.00000   360.00000     3.33190    90.00000   360.00000     3.45308
    14.70000    90.00000   360.00000     3.33202    90.00000   360.00000     3.45319
    14.80000    90.00000   360.00000     3.33213    90.00000   360.00000     3.45330
    14.90000    90.00000   360.00000     3.33225    90.00000   360.00000     3.45342
    15.00000    90.00000   360.00000     3.33237    90.00000   360.00000     3.45353
    15.10000    90.00000   360.00000     3.33249    90.00000   360.00000     3.45364
    15.20000    90.00000   360.00000     3.33261    90.00000   360.00000     3.45375
    15.30000    90.00000   360.00000     3.33273    90.00000   360.00000     3.45386
    15.40000    90.00000   360.00000     3.33285    90.00000   360.00000     3.45397
    15.50000    90.00000   360.00000     3.33296    90.00000   360.00000     3.45408
    15.60000    90.00000   360.00000     3.33308    90.00000   360.00000     3.45419
    15.70000    90.00000   360.00000     3.33320    90.00000   360.00000     3.45430
    15.80000    90.00000   360.00000     3.33332    90.00000   360.00000     3.45442
    15.90000    90.00000   360.00000     3.33344    90.00000   360.00000     3.45453
    16.00000    90.00000   360.00000     3.33356    90.00000   360.00000     3.45464
    16.10000    90.00000   360.00000     3.33367    90.00000   360.00000     3.45475
    16.20000    90.00000   360.00000     3.33379    90.00000   360.00000     3.45486
    16.30000    90.00000   360.00000     3.33391    90.00000   360.00000     3.45497
    16.40000    90.00000   360.00000     3.33403    90.00000   360.00000     3.45508
    16.50000    90.00000   360.00000     3.33415    90.00000   360.00000     3.45519
    16.60000    90.00000   360.00000     3.33427    90.00000   360.00000     3.45530
    16.70000    90.00000   360.00000     3.33438    90.00000   360.00000     3.45541
    16.80000    90.00000   360.00000     3.33450    90.00000   360.00000     3.45553
    16.90000    90.00000   360.00000     3.33462    90.00000   360.00000     3.45564
    17.00000    90.00000   360.00000     3.33474    90.00000   360.00000     3.45575
    17.10000    90.00000   360.00000     3.33486    90.00000   360.00000     3.45586
    17.20000    90.00000   360.00000     3.33497    90.00000   360.00000     3.45597
    17.30000    90.00000   360.00000     3.33509    90.00000   360.00000     3.45608
    17.40000    90.00000   360.00000     3.33521    90.00000   360.00000     3.45619
    17.50000    90.00000   360.00000     3.33533    90.00000   360.00000     3.45630
    17.60000    90.00000   360.00000     3.33544    90.00000   360.00000     3.45641
    17.70000    90.00000   360.00000     3.33556    90.00000   360.00000     3.45652
    17.80000    90.00000   360.00000     3.33568    90.00000   360.00000     3.45663
    17.90000    90.00000   360.00000     3.33580    90.00000   360.00000     3.45674
    18.00000    90.00000   360.00000     3.33592    90.00000   360.00000     3.45685
    18.10000    90.00000   360.00000     3.33603    90.00000   360.00000     3.45696
    18.20000    90.00000   360.00000     3.33615    90.00000   360.00000     3.45707
    18.30000    90.00000   360.00000     3.33627    90.00000   360.00000     3.45718
    18.40000    90.00000   360.00000     3.33639    90.00000   360.00000     3.45729
    18.50000    90.00000   360.00000     3.33650    90.00000   360.00000     3.45740
    18.60000    90.00000   360.00000     3.33662    90.00000   360.00000     3.45751
    18.70000    90.00000   360.00000     3.33674    90.00000   360.00000     3.45762
    18.80000    90.00000   360.00000     3.33686    90.00000   360.00000     3.45773
    18.90000    90.00000   360.00000     3.33697    90.00000   360.00000     3.45784
    19.00000    90.00000   360.00000     3.33709    90.00000   360.00000     3.45795
    19.10000    90.00000   360.00000     3.33721    90.00000   360.00000     3.45806
    19.20000    90.00000   360.00000     3.33733    90.00000   360.00000     3.45817
    19.30000    90.00000   360.00000     3.33744    90.00000   360.00000     3.45829
    19.40000    90.00000   360.00000     3.33756    90.00000   360.00000     3.45840
    19.50000    90.00000   360.00000     3.33768    90.00000   360.00000     3.45850
    19.60000    90.00000   360.00000     3.33779    90.00000   360.00000     3.45861
    19.70000    90.00000   360.00000     3.33791    90.00000   360.00000     3.45872
    19.80000    90.00000   360.00000     3.33803    90.00000   360.00000     3.45883
    19.90000    90.00000   360.00000     3.33815    90.00000   360.00000     3.45894
    20.00000    90.00000   360.00000     3.33826    90.00000   360.00000     3.45905
    20.10000    90.00000   360.00000     3.33838    90.00000   360.00000     3.45916
    20.20000    90.00000   360.00000     3.33850    90.00000   360.00000     3.45927
    20.30000    90.00000   360.00000     3.33861    90.00000   360.00000     3.45938
    20.40000    90.00000   360.00000     3.33873    90.00000   360.00000     3.45949
    20.50000    90.00000   360.00000     3.33885    90.00000   360.00000     3.45960
    20.60000    90.00000   360.00000     3.33897    90.00000   360.00000     3.45971
    20.70000    90.00000   360.00000     3.33908    90.00000   360.00000     3.45982
    20.80000    90.00000   360.00000     3.33920    90.00000   360.00000     3.45993
    20.90000    90.00000   360.00000     3.33932    90.00000   360.00000     3.46004
    21.00000    90.00000   360.00000     3.33943    90.00000   360.00000     3.46015
    21.10000    90.00000   360.00000     3.33955    90.00000   360.00000     3.46026
    21.20000    90.00000   360.00000     3.33967    90.00000   360.00000     3.46037
    21.30000    90.00000   360.00000     3.33978    90.00000   360.00000     3.46048
    21.40000    90.00000   360.00000     3.33990    90.00000   360.00000     3.46059
    21.50000    90.00000   360.00000     3.34002    90.00000   360.00000     3.46070
    21.60000    90.00000   360.00000     3.34013    90.00000   360.00000     3.46081
    21.70000    90.00000   360.00000     3.34025    90.00000   360.00000     3.46092
    21.80000    90.00000   360.00000     3.34037    90.00000   360.00000     3.46103
    21.90000    90.00000   360.00000     3.34048    90.00000   360.00000     3.46114
    22.00000    90.00000   360.00000     3.34060    90.00000   360.00000     3.46124
    22.10000    90.00000   360.00000     3.34072    90.00000   360.00000     3.46135
    22.20000    90.00000   360.00000     3.34083    90.00000   360.00000     3.46146
    22.30000    90.00000   360.00000     3.34095    90.00000   360.00000     3.46157
    22.40000    90.00000   360.00000     3.34107    90.00000   360.00000     3.46168
    22.50000    90.00000   360.00000     3.34118    90.00000   360.00000     3.46179
    22.60000    90.00000   360.00000     3.34130    90.00000   360.00000     3.46190
    22.70000    90.00000   360.00000     3.34141    90.00000   360.00000     3.46201
    22.80000    90.00000   360.00000     3.34153    90.00000   360.00000     3.46212
    22.90000    90.00000   360.00000     3.34165    90.00000   360.00000     3.46223
    23.00000    90.00000   360.00000     3.34176    90.00000   360.00000     3.46233
    23.10000    90.00000   360.00000     3.34188    90.00000   360.00000     3.46244
    23.20000    90.00000   360.00000     3.34200    90.00000   360.00000     3.46255
    23.30000    90.00000   360.00000     3.34211    90.00000   360.00000     3.46266
    23.40000    90.00000   360.00000     3.34223    90.00000   360.00000     3.46277
    23.50000    90.00000   360.00000     3.34234    90.00000   360.00000     3.46288
    23.60000    90.00000   360.00000     3.34246    90.00000   360.00000     3.46299
    23.70000    90.00000   360.00000     3.34258    90.00000   360.00000     3.46310
    23.80000    90.00000   360.00000     3.34269    90.00000   360.00000     3.46321
    23.90000    90.00000   360.00000     3.34281    90.00000   360.00000     3.46331
    24.00000    90.00000   360.00000     3.34292    90.00000   360.00000     3.46342
    24.10000    90.00000   360.00000     3.34304    90.00000   360.00000     3.46353
    24.20000    90.00000   360.00000     3.34316    90.00000   360.00000     3.46364
    24.30000    90.00000   360.00000     3.34327    90.00000   360.00000     3.46375
    24.40000    90.00000   360.00000     3.34339    90.00000   360.00000     3.46386
    24.50000    90.00000   360.00000     3.34350    90.00000   360.00000     3.46396
    24.60000    90.00000   360.00000     3.34362    90.00000   360.00000     3.46407
    24.70000    90.00000   360.00000     3.34373    90.00000   360.00000     3.46418
    24.80000    90.00000   360.00000     3.34385    90.00000   360.00000     3.46429
    24.90000    90.00000   360.00000     3.34397    90.00000   360.00000     3.46440
    25.00000    90.00000   360.00000     3.34408    90.00000   360.00000     3.46451
    25.10000    90.00000   360.00000     3.34420    90.00000   360.00000     3.46462
    25.20000    90.00000   360.00000     3.34431    90.00000   360.00000     3.46472
    25.30000    90.00000   360.00000     3.34443    90.00000   360.00000     3.46483
    25.40000    90.00000   360.00000     3.34454    90.00000   360.00000     3.46494
    25.50000    90.00000   360.00000     3.34466    90.00000   360.00000     3.46505
    25.60000    90.00000   360.00000     3.34477    90.00000   360.00000     3.46516
    25.70000    90.00000   360.00000     3.34489    90.00000   360.00000     3.46526
    25.80000    90.00000   360.00000     3.34501    90.00000   360.00000     3.46537
    25.90000    90.00000   360.00000     3.34512    90.00000   360.00000     3.46548
    26.00000    90.00000   360.00000     3.34524    90.00000   360.00000     3.46559
    26.10000    90.00000   360.00000     3.34535    90.00000   360.00000     3.46570
    26.20000    90.00000   360.00000     3.34547    90.00000   360.00000     3.46580
    26.30000    90.00000   360.00000     3.34558    90.00000   360.00000     3.46591
    26.40000    90.00000   360.00000     3.34570    90.00000   360.00000     3.46602
    26.50000    90.00000   360.00000     3.34581    90.00000   360.00000     3.46613
    26.60000    90.00000   360.00000     3.34593    90.00000   360.00000     3.46624
    26.70000    90.00000   360.00000     3.34604    90.00000   360.00000     3.46634
    26.80000    90.00000   360.00000     3.34616    90.00000   360.00000     3.46645
    26.90000    90.00000   360.00000     3.34627    90.00000   360.00000     3.46656
    27.00000    90.00000   360.00000     3.34639    90.00000   360.00000     3.46667
    27.10000    90.00000   360.00000     3.34650    90.00000   360.00000     3.46677
    27.20000    90.00000   360.00000     3.34662    90.00000   360.00000     3.46688
    27.30000    90.00000   360.00000     3.34673    90.00000   360.00000     3.46699
    27.40000    90.00000   360.00000     3.34685    90.00000   360.00000     3.46710
    27.50000    90.00000   360.00000     3.34696    90.00000   360.00000     3.46720
    27.60000    90.00000   360.00000     3.34708    90.00000   360.00000     3.46731
    27.70000    90.00000   360.00000     3.34719    90.00000   360.00000     3.46742
    27.80000    90.00000   360.00000     3.34731    90.00000   360.00000     3.46753
    27.90000    90.00000   360.00000     3.34742    90.00000   360.00000     3.46763
    28.00000    90.00000   360.00000     3.34754    90.00000   360.00000     3.46774
    28.10000    90.00000   360.00000     3.34765    90.00000   360.00000     3.46785
    28.20000    90.00000   360.00000     3.34777    90.00000   360.00000     3.46796
    28.30000    90.00000   360.00000     3.34788    90.00000   360.00000     3.46806
    28.40000    90.00000   360.00000     3.34800    90.00000   360.00000     3.46817
    28.50000    90.00000   360.00000     3.34811    90.00000   360.00000     3.46828
    28.60000    90.00000   360.00000     3.34822    90.00000   360.00000     3.46839
    28.70000    90.00000   360.00000     3.34834    90.00000   360.00000     3.46849
    28.80000    90.00000   360.00000     3.34845    90.00000   360.00000     3.46860
    28.90000    90.00000   360.00000     3.34857    90.00000   360.00000     3.46871
    29.00000    90.00000   360.00000     3.34868    90.00000   360.00000     3.46881
    29.10000    90.00000   360.00000     3.34880    90.00000   360.00000     3.46892
    29.20000    90.00000   360.00000     3.34891    90.00000   360.00000     3.46903
    29.30000    90.00000   360.00000     3.34903    90.00000   360.00000     3.46914
    29.40000    90.00000   360.00000     3.34914    90.00000   360.00000     3.46924
    29.50000    90.00000   360.00000     3.34925    90.00000   360.00000     3.46935
    29.60000    90.00000   360.00000     3.34937    90.00000   360.00000     3.46946
    29.70000    90.00000   360.00000     3.34948    90.00000   360.00000     3.46956
    29.80000    90.00000   360.00000     3.34960    90.00000   360.00000     3.46967
    29.90000    90.00000   360.00000     3.34971    90.00000   360.00000     3.46978
    30.00000    90.00000   360.00000     3.34983    90.00000   360.00000     3.46988
    30.10000    90.00000   360.00000     3.34994    90.00000   360.00000     3.46999
    30.20000    90.00000   360.00000     3.35005    90.00000   360.00000     3.47010
    30.30000    90.00000   360.00000     3.35017    90.00000   360.00000     3.47020
    30.40000    90.00000   360.00000     3.35028    90.00000   360.00000     3.47031
    30.50000    90.00000   360.00000     3.35040    90.00000   360.00000     3.47042
    30.60000    90.00000   360.00000     3.35051    90.00000   360.00000     3.47052
    30.70000    90.00000   360.00000     3.35062    90.00000   360.00000     3.47063
    30.80000    90.00000   360.00000     3.35074    90.00000   360.00000     3.47074
    30.90000    90.00000   360.00000     3.35085    90.00000   360.00000     3.47084
    31.00000    90.00000   360.00000     3.35097    90.00000   360.00000     3.47095
    31.10000    90.00000   360.00000     3.35108    90.00000   360.00000     3.47106
    31.20000    90.00000   360.00000     3.35119    90.00000   360.00000     3.47116
    31.30000    90.00000   360.00000     3.35131    90.00000   360.00000     3.47127
    31.40000    90.00000   360.00000     3.35142    90.00000   360.00000     3.47138
    31.50000    90.00000   360.00000     3.35153    90.00000   360.00000     3.47148
    31.60000    90.00000   360.00000     3.35165    90.00000   360.00000     3.47159
    31.70000    90.00000   360.00000     3.35176    90.00000   360.00000     3.47170
    31.80000    90.00000   360.00000     3.35188    90.00000   360.00000     3.47180
    31.90000    90.00000   360.00000     3.35199    90.00000   360.00000     3.47191
    32.00000    90.00000   360.00000     3.35210    90.00000   360.00000     3.47201
    32.10000    90.00000   360.00000     3.35222    90.00000   360.00000     3.47212
    32.20000    90.00000   360.00000     3.35233    90.00000   360.00000     3.47223
    32.30000    90.00000   360.00000     3.35244    90.00000   360.00000     3.47233
    32.40000    90.00000   360.00000     3.35256    90.00000   360.00000     3.47244
    32.50000    90.00000   360.00000     3.35267    90.00000   360.00000     3.47254
    32.60000    90.00000   360.00000     3.35278    90.00000   360.00000     3.47265
    32.70000    90.00000   360.00000     3.35290    90.00000   360.00000     3.47276
    32.80000    90.00000   360.00000     3.35301    90.00000   360.00000     3.47286
    32.90000    90.00000   360.00000     3.35312    90.00000   360.00000     3.47297
    33.00000    90.00000   360.00000     3.35324    90.00000   360.00000     3.47307
    33.10000    90.00000   360.00000     3.35335    90.00000   360.00000     3.47318
    33.20000    90.00000   360.00000     3.35346    90.00000   360.00000     3.47329
    33.30000    90.00000   360.00000     3.35358    90.00000   360.00000     3.47339
    33.40000    90.00000   360.00000     3.35369    90.00000   360.00000     3.47350
    33.50000    90.00000   360.00000     3.35380    90.00000   360.00000     3.47360
    33.60000    90.00000   360.00000     3.35392    90.00000   360.00000     3.47371
    33.70000    90.00000   360.00000     3.35403    90.00000   360.00000     3.47382
    33.80000    90.00000   360.00000     3.35414    90.00000   360.00000     3.47392
    33.90000    90.00000   360.00000     3.35426    90.00000   360.00000     3.47403
    34.00000    90.00000   360.00000     3.35437    90.00000   360.00000     3.47413
    34.10000    90.00000   360.00000     3.35448    90.00000   360.00000     3.47424
    34.20000    90.00000   360.00000     3.35459    90.00000   360.00000     3.47434
    34.30000    90.00000   360.00000     3.35471    90.00000   360.00000     3.47445
    34.40000    90.00000   360.00000     3.35482    90.00000   360.00000     3.47455
    34.50000    90.00000   360.00000     3.35493    90.00000   360.00000     3.47466
    34.60000    90.00000   360.00000     3.35505    90.00000   360.00000     3.47477
    34.70000    90.00000   360.00000     3.35516    90.00000   360.00000     3.47487
    34.80000    90.00000   360.00000     3.35527    90.00000   360.00000     3.47498
    34.90000    90.00000   360.00000     3.35538    90.00000   360.00000     3.47508
    35.00000    90.00000   360.00000     3.35550    90.00000   360.00000     3.47519
    35.10000    90.00000   360.00000     3.35561    90.00000   360.00000     3.47529
    35.20000    90.00000   360.00000     3.35572    90.00000   360.00000     3.47540
    35.30000    90.00000   360.00000     3.35583    90.00000   360.00000     3.47550
    35.40000    90.00000   360.00000     3.35595    90.00000   360.00000     3.47561
    35.50000    90.00000   360.00000     3.35606    90.00000   360.00000     3.47571
    35.60000    90.00000   360.00000     3.35617    90.00000   360.00000     3.47582
    35.70000    90.00000   360.00000     3.35628    90.00000   360.00000     3.47592
    35.80000    90.00000   360.00000     3.35640    90.00000   360.00000     3.47603
    35.90000    90.00000   360.00000     3.35651    90.00000   360.00000     3.47613
    36.00000    90.00000   360.00000     3.35662    90.00000   360.00000     3.47624
    36.10000    90.00000   360.00000     3.35673    90.00000   360.00000     3.47634
    36.20000    90.00000   360.00000     3.35685    90.00000   360.00000     3.47645
    36.30000    90.00000   360.00000     3.35696    90.00000   360.00000     3.47655
    36.40000    90.00000   360.00000     3.35707    90.00000   360.00000     3.47666
    36.50000    90.00000   360.00000     3.35718    90.00000   360.00000     3.47676
    36.60000    90.00000   360.00000     3.35730    90.00000   360.00000     3.47687
    36.70000    90.00000   360.00000     3.35741    90.00000   360.00000     3.47697
    36.80000    90.00000   360.00000     3.35752    90.00000   360.00000     3.47708
    36.90000    90.00000   360.00000     3.35763    90.00000   360.00000     3.47718
    37.00000    90.00000   360.00000     3.35774    90.00000   360.00000     3.47729
    37.10000    90.00000   360.00000     3.35786    90.00000   360.00000     3.47739
    37.20000    90.00000   360.00000     3.35797    90.00000   360.00000     3.47750
    37.30000    90.00000   360.00000     3.35808    90.00000   360.00000     3.47760
    37.40000    90.00000   360.00000     3.35819    90.00000   360.00000     3.47771
    37.50000    90.00000   360.00000     3.35830    90.00000   360.00000     3.47781
    37.60000    90.00000   360.00000     3.35842    90.00000   360.00000     3.47791
    37.70000    90.00000   360.00000     3.35853    90.00000   360.00000     3.47802
    37.80000    90.00000   360.00000     3.35864    90.00000   360.00000     3.47812
    37.90000    90.00000   360.00000     3.35875    90.00000   360.00000     3.47823
    38.00000    90.00000   360.00000     3.35887    90.00000   360.00000     3.47833
    38.10000    90.00000   360.00000     3.35898    90.00000   360.00000     3.47844
    38.20000    90.00000   360.00000     3.35909    90.00000   360.00000     3.47854
    38.30000    90.00000   360.00000     3.35920    90.00000   360.00000     3.47865
    38.40000    90.00000   360.00000     3.35931    90.00000   360.00000     3.47875
    38.50000    90.00000   360.00000     3.35942    90.00000   360.00000     3.47885
    38.60000    90.00000   360.00000     3.35954    90.00000   360.00000     3.47896
    38.70000    90.00000   360.00000     3.35965    90.00000   360.00000     3.47906
    38.80000    90.00000   360.00000     3.35976    90.00000   360.00000     3.47917
    38.90000    90.00000   360.00000     3.35987    90.00000   360.00000     3.47927
    39.00000    90.00000   360.00000     3.35998    90.00000   360.00000     3.47938
    39.10000    90.00000   360.00000     3.36009    90.00000   360.00000     3.47948
    39.20000    90.00000   360.00000     3.36020    90.00000   360.00000     3.47958
    39.30000    90.00000   360.00000     3.36032    90.00000   360.00000     3.47969
    39.40000    90.00000   360.00000     3.36043    90.00000   360.00000     3.47979
    39.50000    90.00000   360.00000     3.36054    90.00000   360.00000     3.47990
    39.60000    90.00000   360.00000     3.36065    90.00000   360.00000     3.48000
    39.70000    90.00000   360.00000     3.36076    90.00000   360.00000     3.48010
    39.80000    90.00000   360.00000     3.36087    90.00000   360.00000     3.48021
    39.90000    90.00000   360.00000     3.36098    90.00000   360.00000     3.48031
    40.00000    90.00000   360.00000     3.36110    90.00000   360.00000     3.48042
