 # temperature (K), theta (degree), phi (degree), abs for RE 1-2
     0.00000     0.00000     0.00000     4.69615     0.00000     0.00000     4.69615
     2.00000     0.00000     0.00000     4.69614     0.00000     0.00000     4.69614
     4.00000     0.00000     0.00000     4.69612     0.00000     0.00000     4.69612
     6.00000     0.00000     0.00000     4.69609     0.00000     0.00000     4.69609
     8.00000     0.00000     0.00000     4.69605     0.00000     0.00000     4.69605
    10.00000     0.00000     0.00000     4.69601     0.00000     0.00000     4.69601
    12.00000     0.00000     0.00000     4.69596     0.00000     0.00000     4.69596
    14.00000     0.00000     0.00000     4.69591     0.00000     0.00000     4.69591
    16.00000     0.00000     0.00000     4.69586     0.00000     0.00000     4.69586
    18.00000     0.00000     0.00000     4.69580     0.00000     0.00000     4.69580
    20.00000     0.00000     0.00000     4.69574     0.00000     0.00000     4.69574
    22.00000     0.00000     0.00000     4.69568     0.00000     0.00000     4.69568
    24.00000     0.00000     0.00000     4.69561     0.00000     0.00000     4.69561
    26.00000     0.00000     0.00000     4.69554     0.00000     0.00000     4.69554
    28.00000     0.00000     0.00000     4.69547     0.00000     0.00000     4.69547
    30.00000     0.00000     0.00000     4.69539     0.00000     0.00000     4.69539
    32.00000     0.00000     0.00000     4.69530     0.00000     0.00000     4.69530
    34.00000     0.00000     0.00000     4.69521     0.00000     0.00000     4.69521
    36.00000     0.00000     0.00000     4.69510     0.00000     0.00000     4.69510
    38.00000     0.00000     0.00000     4.69498     0.00000     0.00000     4.69498
    40.00000     0.00000     0.00000     4.69483     0.00000     0.00000     4.69483
    42.00000     0.00000     0.00000     4.69466     0.00000     0.00000     4.69466
    44.00000     0.00000     0.00000     4.69446     0.00000     0.00000     4.69446
    46.00000     0.00000     0.00000     4.69421     0.00000     0.00000     4.69421
    48.00000     0.00000     0.00000     4.69392     0.00000     0.00000     4.69392
    50.00000     0.00000     0.00000     4.69357     0.00000     0.00000     4.69357
    52.00000     0.00000     0.00000     4.69316     0.00000     0.00000     4.69316
    54.00000     0.00000     0.00000     4.69269     0.00000     0.00000     4.69269
    56.00000     0.00000     0.00000     4.69213     0.00000     0.00000     4.69213
