 # temperature (K), theta (degree), phi (degree), abs
     0.00000     0.00000     0.00000     2.15106
     2.00000     0.00000     0.00000     2.15090
     4.00000     0.00000     0.00000     2.15062
     6.00000     0.00000     0.00000     2.15024
     8.00000     0.00000     0.00000     2.14980
    10.00000     0.00000     0.00000     2.14931
    12.00000     0.00000     0.00000     2.14875
    14.00000     0.00000     0.00000     2.14815
    16.00000     0.00000     0.00000     2.14751
    18.00000     0.00000     0.00000     2.14682
    20.00000     0.00000     0.00000     2.14610
    22.00000     0.00000     0.00000     2.14533
    24.00000     0.00000     0.00000     2.14453
    26.00000     0.00000     0.00000     2.14369
    28.00000     0.00000     0.00000     2.14283
    30.00000     0.00000     0.00000     2.14192
    32.00000     0.00000     0.00000     2.14099
    34.00000     0.00000     0.00000     2.14003
    36.00000     0.00000     0.00000     2.13904
    38.00000     0.00000     0.00000     2.13801
    40.00000     0.00000     0.00000     2.13696
    42.00000     0.00000     0.00000     2.13589
    44.00000     0.00000     0.00000     2.13478
    46.00000     0.00000     0.00000     2.13365
    48.00000     0.00000     0.00000     2.13250
    50.00000     0.00000     0.00000     2.13131
    52.00000     0.00000     0.00000     2.13011
    54.00000     0.00000     0.00000     2.12887
    56.00000     0.00000     0.00000     2.12762
